%LabVIEW Measurement        
%Writer_Version        2
%Reader_Version        2
%Separator        Tab
%Decimal_Separator        .
%Multi_Headings        No
%X_Columns        No
%Time_Pref        Absolute
%Operator        mechlab
%Description        Data file
%Date        2023/02/10
%Time        13:44:10.2789998054504394531
%***End_of_Header***        
%        
%Channels        6                                                
%Samples        1        1        1        1        1        1        
%Date        2023/02/10        2023/02/10        2023/02/10        2023/02/10        2023/02/10        2023/02/10        
%Time        13:44:10.2789998054504394531        13:44:10.3850002288818359375        13:44:10.4939999580383300782        13:44:10.6030001640319824219        13:44:10.7109999656677246094        13:44:10.8189997673034667969        
%X_Dimension        Time        Time        Time        Time        Time        Time        
%X0        0.0000000000000000E+0        0.0000000000000000E+0        0.0000000000000000E+0        0.0000000000000000E+0        0.0000000000000000E+0        0.0000000000000000E+0        
%Delta_X        1.000000        1.000000        1.000000        1.000000        1.000000        1.000000        
%***End_of_Header***                                                        
%X_Value        Untitled        Untitled 1        Untitled 2        Untitled 3        Untitled 4        Untitled 5        Comment
        0.000000        116.970470        9.737914        13.720016        -6.290082E-8        4.656699E-6
        0.545000        124.048641        9.746654        13.723165        1.185316E-7        4.625631E-6
        1.088000        125.731236        9.745102        13.726685        3.194454E-7        4.510060E-6
        1.632000        125.098451        9.742790        13.722568        8.442589E-7        4.317441E-6
        2.176000        151.807435        9.746648        13.723046        1.037502E-5        1.421948E-6
        2.718000        180.139439        9.740433        13.722709        1.173640E-5        4.663149E-7
        3.262000        177.489150        9.749243        13.723198        1.221982E-5        2.376588E-7
        3.808000        185.601030        9.770310        13.720502        1.129803E-5        4.451886E-7
        4.355000        197.327672        9.757233        13.724517        1.159514E-5        3.234052E-7
        4.899000        194.778822        9.762958        13.723569        1.218694E-5        3.296184E-7
        5.445000        202.026057        9.792166        13.723243        1.354467E-5        2.525716E-7
        5.987000        198.015201        9.760321        13.724725        1.417666E-5        -2.842721E-7
        6.533000        201.125989        9.789155        13.726823        1.555875E-5        -5.352960E-7
        7.080000        210.944616        9.793825        13.725415        1.572557E-5        -9.379279E-7
        7.626000        208.859486        9.800610        13.725241        1.642575E-5        -1.372870E-6
        8.167000        210.226494        9.799003        13.725255        1.626380E-5        -1.673601E-6
        8.714000        217.924568        9.809202        13.727066        1.647446E-5        -1.848820E-6
        9.259000        214.628614        9.806719        13.727025        1.732442E-5        -1.970603E-6
        9.806000        225.785266        9.817584        13.725237        1.822187E-5        -2.434126E-6
        10.348000        227.385744        9.811491        13.727125        1.855674E-5        -2.376962E-6
        10.894000        231.615579        9.814612        13.727322        1.905113E-5        -2.871551E-6
        11.440000        238.231640        9.834001        13.725327        1.994737E-5        -3.542601E-6
        11.982000        233.567068        9.835411        13.725724        2.147317E-5        -3.629589E-6
        12.527000        238.217149        9.842409        13.726318        2.144638E-5        -3.500350E-6
        13.069000        245.934545        9.845514        13.728223        2.168870E-5        -3.162340E-6
        13.613000        252.318745        9.841321        13.727824        2.232435E-5        -3.767527E-6
        14.157000        250.727928        9.847732        13.728321        2.306351E-5        -4.144060E-6
        14.704000        252.487810        9.850395        13.727071        2.359809E-5        -4.446032E-6
        15.248000        262.060086        9.849658        13.728529        2.442614E-5        -4.542961E-6
        15.793000        262.781428        9.856269        13.728860        2.503987E-5        -5.129507E-6
        16.341000        265.262652        9.866980        13.727677        2.695049E-5        -5.693684E-6
        16.887000        274.218244        9.869350        13.726982        2.751064E-5        -6.147261E-6
        17.434000        277.718686        9.884073        13.728504        2.920817E-5        -6.484027E-6
        17.973000        280.536429        9.883304        13.730375        3.067432E-5        -6.341119E-6
        18.520000        281.422006        9.882199        13.729174        2.964655E-5        -6.281471E-6
        19.063000        288.645089        9.888813        13.729724        3.123936E-5        -6.707709E-6
        19.609000        288.959066        9.893937        13.730415        3.165704E-5        -6.743746E-6
        20.151000        296.475194        9.899424        13.730378        3.323767E-5        -6.976127E-6
        20.697000        301.139767        9.915909        13.730393        3.357012E-5        -7.739129E-6
        21.241000        302.695161        9.902171        13.732233        3.391353E-5        -7.694392E-6
        21.787000        310.085698        9.909401        13.732026        3.480979E-5        -7.756526E-6
        22.334000        319.997713        9.924703        13.731538        3.613227E-5        -8.197675E-6
        22.880000        321.063625        9.925570        13.732735        3.781521E-5        -8.059739E-6
        23.427000        322.424193        9.922291        13.732598        4.050281E-5        -9.005412E-6
        23.972000        331.246144        9.934622        13.732395        3.898548E-5        -8.940793E-6
        24.518000        337.704411        9.935105        13.732934        4.000474E-5        -9.738587E-6
        25.063000        343.608790        9.944347        13.733600        4.059780E-5        -9.169444E-6
        25.605000        338.805746        9.940608        13.732451        3.960532E-5        -8.515800E-6
        26.146000        347.123723        9.953541        13.731965        3.950303E-5        -8.955705E-6
        26.693000        356.335328        9.967820        13.733489        4.085718E-5        -9.932443E-6
        27.239000        365.108975        9.965585        13.733000        4.209565E-5        -1.017228E-5
        27.783000        363.477904        9.970325        13.733382        4.385411E-5        -1.078491E-5
        28.328000        373.058230        9.971855        13.733734        4.456895E-5        -1.144477E-5
        28.877000        377.077137        9.962658        13.733567        4.503779E-5        -1.215557E-5
        29.422000        385.519095        9.976753        13.733292        4.631281E-5        -1.208722E-5
        29.970000        394.708158        9.976576        13.735109        4.811269E-5        -1.273962E-5
        30.515000        396.419736        10.001852        13.734769        5.056288E-5        -1.383440E-5
        31.062000        406.586153        9.993141        13.733493        5.220933E-5        -1.432774E-5
        31.609000        425.358762        9.998580        13.734882        5.377664E-5        -1.473409E-5
        32.154000        427.612957        9.991872        13.734290        5.533055E-5        -1.510564E-5
        32.699000        429.601478        10.007771        13.737253        5.681262E-5        -1.602396E-5
        33.243000        442.423014        10.004286        13.736305        5.829835E-5        -1.677080E-5
        33.789000        444.967034        10.005520        13.738055        5.852608E-5        -1.697832E-5
        34.338000        460.590211        10.020468        13.737293        5.959045E-5        -1.710880E-5
        34.883000        466.254680        10.019734        13.737762        6.157793E-5        -1.808428E-5
        35.429000        473.083279        10.028912        13.738466        6.365675E-5        -1.900011E-5
        35.970000        488.822387        10.033968        13.738839        6.631892E-5        -1.924491E-5
        36.515000        492.846124        10.031027        13.740655        6.866325E-5        -2.006257E-5
        37.062000        498.360850        10.033552        13.738198        7.125603E-5        -2.104922E-5
        37.607000        508.528877        10.042347        13.740354        7.273815E-5        -2.207688E-5
        38.149000        528.884253        10.057154        13.739756        7.527006E-5        -2.230056E-5
        38.692000        541.039192        10.048121        13.739117        7.762905E-5        -2.340153E-5
        39.235000        553.701324        10.051940        13.740293        8.032418E-5        -2.459943E-5
        39.781000        562.346160        10.059414        13.742461        8.286588E-5        -2.559850E-5
        40.327000        578.906438        10.073825        13.741430        8.460379E-5        -2.557117E-5
        40.873000        587.295262        10.068051        13.743404        8.725755E-5        -2.684486E-5
        41.418000        604.047147        10.070250        13.746035        8.991985E-5        -2.763268E-5
        41.966000        612.357074        10.080913        13.742992        9.248230E-5        -2.865536E-5
        42.512000        630.401901        10.089347        13.744134        9.563667E-5        -2.928040E-5
        43.058000        641.344405        10.088278        13.743849        9.788006E-5        -3.027200E-5
        43.607000        660.943016        10.100016        13.744273        0.000102        -3.134687E-5
        44.152000        675.503502        10.100805        13.746539        0.000105        -3.214587E-5
        44.698000        691.603281        10.096802        13.746492        0.000108        -3.316108E-5
        45.245000        708.570925        10.100991        13.745264        0.000111        -3.413901E-5
        45.788000        717.634397        10.108990        13.746188        0.000113        -3.560404E-5
        46.334000        732.120817        10.115895        13.745695        0.000116        -3.694108E-5
        46.879000        747.095109        10.118954        13.746152        0.000119        -3.786557E-5
        47.429000        769.078336        10.130286        13.746327        0.000123        -3.843219E-5
        47.973000        780.447527        10.133062        13.747595        0.000126        -3.998792E-5
        48.519000        796.465189        10.144446        13.748474        0.000129        -4.060300E-5
        49.060000        815.263561        10.135162        13.747956        0.000132        -4.178346E-5
        49.608000        832.300441        10.147276        13.749438        0.000135        -4.349077E-5
        50.154000        843.618107        10.158805        13.749984        0.000137        -4.455690E-5
        50.698000        864.422712        10.153124        13.748632        0.000140        -4.521174E-5
        51.248000        880.651303        10.158412        13.748705        0.000143        -4.647669E-5
        51.792000        889.428170        10.157565        13.749401        0.000147        -4.723093E-5
        52.335000        909.314996        10.168334        13.748145        0.000151        -4.859278E-5
        52.876000        916.784431        10.188570        13.748134        0.000153        -4.976328E-5
        53.421000        942.293862        10.170801        13.749729        0.000155        -5.109780E-5
        53.967000        949.723043        10.179083        13.748240        0.000159        -5.293057E-5
        54.515000        970.128334        10.179151        13.750149        0.000161        -5.369847E-5
        55.060000        986.099302        10.199889        13.750544        0.000163        -5.490251E-5
        55.603000        1014.201057        10.197803        13.750137        0.000167        -5.590649E-5
        56.145000        1023.641302        10.197732        13.748730        0.000170        -5.714158E-5
        56.692000        1037.725187        10.206674        13.748937        0.000173        -5.859784E-5
        57.236000        1048.680573        10.201380        13.751350        0.000173        -5.883144E-5
        57.782000        1070.330501        10.213073        13.747765        0.000175        -5.883766E-5
        58.326000        1090.652065        10.209589        13.750227        0.000178        -6.041444E-5
        58.867000        1107.139888        10.214770        13.749611        0.000180        -6.129788E-5
        59.408000        1129.807424        10.225491        13.749021        0.000186        -6.291815E-5
        59.951000        1144.755954        10.232804        13.750389        0.000189        -6.414950E-5
        60.495000        1154.893389        10.240207        13.751736        0.000193        -6.508139E-5
        61.036000        1176.791279        10.240468        13.750757        0.000197        -6.657739E-5
        61.585000        1206.023352        10.236134        13.750713        0.000201        -6.796280E-5
        62.129000        1217.239580        10.251758        13.752052        0.000203        -6.868222E-5
        62.677000        1235.897871        10.261786        13.751079        0.000207        -6.937554E-5
        63.220000        1267.339055        10.258176        13.751489        0.000210        -7.103181E-5
        63.763000        1278.912734        10.264488        13.749450        0.000215        -7.276636E-5
        64.309000        1297.216794        10.268018        13.750191        0.000220        -7.489104E-5
        64.855000        1314.387316        10.282103        13.750150        0.000224        -7.654605E-5
        65.404000        1333.984318        10.281311        13.749859        0.000227        -7.690016E-5
        65.951000        1363.209951        10.274378        13.751575        0.000230        -7.827312E-5
        66.499000        1378.274411        10.296511        13.749860        0.000234        -7.945845E-5
        67.043000        1405.703129        10.285581        13.748855        0.000238        -8.104138E-5
        67.589000        1428.166179        10.296720        13.749811        0.000243        -8.285416E-5
        68.131000        1444.509090        10.285697        13.746794        0.000246        -8.430165E-5
        68.678000        1464.830654        10.300043        13.749706        0.000251        -8.603366E-5
        69.225000        1488.248516        10.311375        13.749633        0.000256        -8.725874E-5
        69.772000        1511.160795        10.317861        13.747537        0.000260        -8.858570E-5
        70.318000        1530.799660        10.316863        13.752619        0.000264        -9.041460E-5
        70.864000        1548.733389        10.317568        13.748390        0.000269        -9.261872E-5
        71.408000        1579.306709        10.322646        13.750107        0.000273        -9.361766E-5
        71.953000        1600.808506        10.328198        13.748204        0.000279        -9.584289E-5
        72.499000        1625.099063        10.337727        13.749905        0.000286        -9.777365E-5
        73.041000        1642.042557        10.349500        13.746616        0.000289        -9.943852E-5
        73.587000        1662.434968        10.350405        13.751629        0.000293        -0.000101
        74.127000        1690.324187        10.350808        13.749506        0.000297        -0.000102
        74.672000        1709.650686        10.339118        13.748933        0.000302        -0.000104
        75.216000        1730.234704        10.361412        13.750412        0.000306        -0.000106
        75.758000        1755.552531        10.352598        13.751324        0.000309        -0.000107
        76.302000        1778.914038        10.365821        13.749583        0.000314        -0.000108
        76.846000        1811.590201        10.373186        13.747649        0.000315        -0.000109
        77.395000        1835.199671        10.381507        13.750386        0.000318        -0.000110
        77.937000        1851.634360        10.371833        13.749788        0.000323        -0.000112
        78.485000        1876.758971        10.375730        13.751298        0.000328        -0.000113
        79.028000        1900.497252        10.391399        13.751770        0.000333        -0.000115
        79.573000        1928.764854        10.387693        13.750176        0.000339        -0.000117
        80.120000        1951.586966        10.410261        13.750394        0.000342        -0.000119
        80.664000        1981.574197        10.406805        13.751468        0.000348        -0.000121
        81.204000        2005.471882        10.416215        13.752299        0.000352        -0.000122
        81.750000        2030.103791        10.415619        13.751945        0.000360        -0.000124
        82.292000        2046.540091        10.431160        13.752613        0.000364        -0.000126
        82.835000        2072.827223        10.415806        13.754410        0.000368        -0.000128
        83.381000        2103.297496        10.423180        13.751761        0.000373        -0.000129
        83.927000        2137.118469        10.430020        13.752994        0.000378        -0.000131
        84.472000        2156.707422        10.442457        13.751574        0.000382        -0.000133
        85.015000        2177.359068        10.440850        13.754851        0.000386        -0.000135
        85.559000        2210.696999        10.446956        13.753130        0.000392        -0.000137
        86.107000        2236.093725        10.449439        13.754869        0.000399        -0.000138
        86.654000        2260.023614        10.455805        13.755869        0.000406        -0.000141
        87.195000        2291.530818        10.455699        13.753528        0.000410        -0.000144
        87.741000        2317.710071        10.471308        13.754011        0.000410        -0.000144
        88.286000        2354.727172        10.455728        13.756405        0.000414        -0.000146
        88.827000        2381.515058        10.462201        13.757769        0.000419        -0.000147
        89.375000        2402.590171        10.480537        13.758631        0.000425        -0.000149
        89.921000        2430.176687        10.470583        13.757173        0.000431        -0.000151
        90.466000        2462.532435        10.491814        13.758452        0.000437        -0.000153
        91.010000        2489.982089        10.488224        13.758549        0.000443        -0.000155
        91.555000        2513.105299        10.496075        13.757883        0.000447        -0.000156
        92.102000        2555.326372        10.508363        13.759260        0.000453        -0.000158
        92.649000        2567.289707        10.492185        13.759796        0.000458        -0.000161
        93.196000        2600.474678        10.515889        13.758455        0.000463        -0.000163
        93.741000        2633.318299        10.510795        13.761305        0.000469        -0.000165
        94.283000        2663.701628        10.519470        13.761347        0.000472        -0.000166
        94.824000        2688.211169        10.525611        13.762730        0.000479        -0.000167
        95.370000        2727.013917        10.529778        13.762808        0.000484        -0.000170
        95.916000        2746.686600        10.535749        13.763038        0.000490        -0.000172
        96.462000        2777.765510        10.531562        13.764109        0.000495        -0.000174
        97.009000        2811.573606        10.540946        13.766746        0.000501        -0.000176
        97.554000        2841.944055        10.532538        13.764203        0.000508        -0.000178
        98.096000        2875.100046        10.557202        13.765966        0.000513        -0.000180
        98.641000        2906.195058        10.549966        13.765526        0.000519        -0.000182
        99.183000        2939.634433        10.561202        13.764709        0.000525        -0.000185
        99.728000        2965.539967        10.565353        13.768911        0.000531        -0.000186
        100.271000        2994.208499        10.569124        13.765714        0.000537        -0.000188
        100.818000        3024.464630        10.573951        13.768231        0.000544        -0.000191
        101.364000        3052.427922        10.567217        13.768860        0.000550        -0.000193
        101.912000        3090.377299        10.580443        13.768752        0.000555        -0.000195
        102.459000        3119.424215        10.585766        13.770334        0.000561        -0.000198
        103.004000        3152.272671        10.588452        13.770218        0.000566        -0.000199
        103.551000        3186.396358        10.603996        13.769960        0.000572        -0.000201
        104.090000        3219.921073        10.602830        13.771131        0.000578        -0.000203
        104.637000        3251.627940        10.605584        13.771501        0.000584        -0.000206
        105.181000        3279.431830        10.607715        13.769305        0.000591        -0.000208
        105.725000        3310.063125        10.617624        13.768734        0.000598        -0.000210
        106.268000        3347.403872        10.611834        13.769190        0.000603        -0.000212
        106.809000        3382.197378        10.628058        13.771838        0.000609        -0.000215
        107.352000        3406.380065        10.627771        13.770097        0.000615        -0.000217
        107.897000        3452.682850        10.636653        13.771988        0.000619        -0.000219
        108.443000        3485.252755        10.632705        13.774080        0.000627        -0.000222
        108.990000        3518.804844        10.645209        13.771075        0.000632        -0.000224
        109.537000        3549.020725        10.644137        13.772233        0.000638        -0.000226
        110.082000        3582.167061        10.654426        13.772291        0.000645        -0.000229
        110.627000        3616.976671        10.659469        13.771353        0.000652        -0.000232
        111.175000        3647.622460        10.654905        13.771997        0.000658        -0.000235
        111.722000        3677.157253        10.675103        13.772487        0.000662        -0.000236
        112.266000        3713.259806        10.671084        13.772846        0.000668        -0.000238
        112.812000        3756.282740        10.672656        13.772450        0.000674        -0.000240
        113.358000        3794.116194        10.672720        13.774347        0.000681        -0.000243
        113.906000        3827.421936        10.677586        13.773418        0.000687        -0.000246
        114.453000        3856.383521        10.693864        13.776758        0.000694        -0.000247
        114.994000        3891.027289        10.686255        13.775112        0.000699        -0.000250
        115.539000        3926.326384        10.704565        13.775268        0.000703        -0.000251
        116.085000        3962.604445        10.707164        13.776000        0.000712        -0.000254
        116.631000        3996.908475        10.704865        13.775527        0.000718        -0.000256
        117.174000        4041.789515        10.701883        13.776869        0.000722        -0.000258
        117.716000        4067.324723        10.711209        13.776919        0.000727        -0.000261
        118.255000        4096.882062        10.724660        13.775048        0.000734        -0.000263
        118.801000        4139.570092        10.717665        13.775858        0.000741        -0.000266
        119.345000        4172.433049        10.738266        13.778308        0.000748        -0.000268
        119.890000        4216.425293        10.728843        13.776782        0.000756        -0.000270
        120.438000        4245.253240        10.740974        13.777972        0.000762        -0.000272
        120.982000        4281.872654        10.741650        13.777296        0.000770        -0.000274
        121.526000        4309.064699        10.741618        13.776528        0.000777        -0.000277
        122.072000        4349.498536        10.752683        13.778188        0.000782        -0.000280
        122.613000        4385.568894        10.752509        13.778880        0.000789        -0.000282
        123.152000        4423.019142        10.763651        13.777553        0.000795        -0.000285
        123.698000        4462.905533        10.761387        13.778184        0.000802        -0.000287
        124.242000        4500.301038        10.773901        13.777466        0.000809        -0.000290
        124.785000        4540.187430        10.781733        13.777834        0.000815        -0.000293
        125.328000        4571.408048        10.770539        13.778760        0.000822        -0.000295
        125.874000        4613.009240        10.784657        13.778964        0.000829        -0.000297
        126.421000        4648.005637        10.785166        13.777098        0.000836        -0.000300
        126.967000        4688.809811        10.791700        13.780039        0.000843        -0.000303
        127.511000        4725.245676        10.785945        13.777853        0.000851        -0.000305
        128.052000        4768.102780        10.800562        13.778508        0.000858        -0.000308
        128.596000        4803.529087        10.805540        13.778915        0.000864        -0.000310
        129.140000        4839.145391        10.813578        13.777858        0.000873        -0.000313
        129.687000        4874.645765        10.817819        13.779212        0.000880        -0.000316
        130.229000        4915.775191        10.825416        13.779510        0.000886        -0.000318
        130.770000        4956.624453        10.809630        13.778726        0.000893        -0.000321
        131.317000        4994.976388        10.824904        13.776999        0.000899        -0.000323
        131.863000        5029.314243        10.829390        13.778358        0.000907        -0.000325
        132.408000        5061.658745        10.843678        13.777311        0.000913        -0.000328
        132.952000        5108.370530        10.845366        13.778555        0.000921        -0.000331
        133.495000        5148.680399        10.841096        13.778130        0.000927        -0.000333
        134.038000        5186.261079        10.847691        13.777906        0.000933        -0.000335
        134.584000        5221.920862        10.872532        13.778696        0.000942        -0.000338
        135.128000        5262.190478        10.863499        13.779180        0.000951        -0.000341
        135.675000        5298.368728        10.860269        13.777513        0.000958        -0.000344
        136.218000        5351.112105        10.882196        13.778286        0.000961        -0.000346
        136.759000        5385.375899        10.865808        13.777729        0.000969        -0.000349
        137.305000        5442.025479        10.885832        13.776691        0.000977        -0.000351
        137.849000        5459.812704        10.884479        13.776981        0.000984        -0.000353
        138.393000        5502.006442        10.888447        13.777602        0.000992        -0.000356
        138.940000        5546.811830        10.896755        13.778097        0.000999        -0.000359
        139.487000        5580.970967        10.892842        13.777673        0.001005        -0.000362
        140.029000        5613.908008        10.891670        13.776461        0.001013        -0.000365
        140.576000        5672.930942        10.907688        13.777745        0.001020        -0.000367
        141.118000        5703.636329        10.909111        13.776628        0.001028        -0.000370
        141.660000        5743.559773        10.909031        13.776613        0.001036        -0.000373
        142.206000        5783.388220        10.926565        13.776481        0.001043        -0.000375
        142.749000        5822.612864        10.936645        13.776270        0.001051        -0.000379
        143.296000        5860.122709        10.926813        13.775412        0.001058        -0.000381
        143.839000        5907.390009        10.936290        13.776125        0.001064        -0.000384
        144.384000        5946.696773        10.940680        13.776092        0.001072        -0.000386
        144.925000        5988.439681        10.934171        13.776850        0.001080        -0.000389
        145.473000        6035.673172        10.946103        13.775311        0.001088        -0.000392
        146.019000        6069.384697        10.943304        13.777560        0.001086        -0.000391
        146.567000        6044.086159        10.949819        13.774487        0.001083        -0.000391
        147.110000        6037.590850        10.960243        13.777589        0.001084        -0.000391
        147.657000        6049.121071        10.949342        13.775852        0.001086        -0.000392
        148.201000        6061.886269        10.957222        13.779094        0.001089        -0.000393
        148.745000        6060.268078        10.945555        13.778969        0.001092        -0.000394
        149.290000        6080.927799        10.952459        13.775154        0.001095        -0.000395
        149.836000        6106.524214        10.957969        13.776200        0.001091        -0.000392
        150.378000        6049.745805        10.960845        13.777683        0.001077        -0.000387
        150.923000        5970.084073        10.956156        13.775969        0.001066        -0.000382
        151.469000        5907.388399        10.962790        13.778457        0.001054        -0.000379
        152.009000        5838.627327        10.957522        13.775457        0.001043        -0.000375
        152.555000        5786.682568        10.952208        13.776811        0.001033        -0.000371
        153.102000        5720.491284        10.946631        13.777653        0.001022        -0.000367
        153.646000        5666.752832        10.968883        13.777129        0.001012        -0.000363
        154.189000        5607.138976        10.948998        13.775535        0.001001        -0.000359
        154.734000        5551.318614        10.939939        13.774784        0.000991        -0.000355
        155.280000        5495.821892        10.944161        13.774800        0.000981        -0.000352
        155.828000        5435.832878        10.949242        13.774798        0.000971        -0.000348
        156.372000        5378.515089        10.928140        13.773351        0.000962        -0.000344
        156.916000        5324.205045        10.943301        13.774039        0.000953        -0.000341
        157.463000        5273.788321        10.931441        13.770728        0.000942        -0.000337
        158.010000        5212.868652        10.938332        13.771395        0.000932        -0.000334
        158.555000        5163.228018        10.928175        13.772298        0.000923        -0.000331
        159.101000        5113.452134        10.932458        13.770757        0.000913        -0.000327
        159.646000        5054.147439        10.931586        13.771758        0.000904        -0.000323
        160.188000        5007.968611        10.925744        13.771327        0.000894        -0.000320
        160.734000        4947.794443        10.928546        13.771001        0.000886        -0.000317
        161.279000        4903.393212        10.923023        13.769085        0.000875        -0.000314
        161.823000        4847.566425        10.922105        13.770250        0.000865        -0.000309
        162.370000        4790.184244        10.924195        13.766780        0.000854        -0.000306
        162.913000        4741.582159        10.910708        13.765790        0.000844        -0.000302
        163.456000        4682.849072        10.919642        13.767867        0.000833        -0.000298
        163.997000        4620.993925        10.911790        13.766929        0.000825        -0.000295
        164.542000        4580.305682        10.903424        13.766749        0.000815        -0.000292
        165.089000        4531.098188        10.903369        13.767011        0.000806        -0.000288
        165.636000        4471.785456        10.911076        13.765506        0.000797        -0.000284
        166.182000        4424.828940        10.913236        13.764861        0.000788        -0.000281
        166.727000        4380.767456        10.907987        13.764326        0.000780        -0.000278
        167.274000        4321.314645        10.914714        13.764027        0.000771        -0.000274
        167.819000        4264.876016        10.912570        13.763560        0.000762        -0.000271
        168.364000        4223.336014        10.899598        13.763036        0.000752        -0.000267
        168.904000        4167.960080        10.898700        13.762922        0.000743        -0.000264
        169.449000        4123.125733        10.893016        13.764995        0.000735        -0.000261
        169.997000        4068.625716        10.885867        13.765106        0.000725        -0.000258
        170.541000        4023.607815        10.896926        13.762427        0.000715        -0.000254
        171.086000        3966.386664        10.887687        13.762953        0.000707        -0.000251
        171.630000        3925.677498        10.892102        13.764483        0.000699        -0.000248
        172.171000        3870.583343        10.886962        13.762949        0.000689        -0.000244
        172.715000        3820.148934        10.898484        13.762014        0.000681        -0.000241
        173.259000        3772.537101        10.873527        13.763352        0.000671        -0.000238
        173.803000        3725.611188        10.879803        13.760331        0.000662        -0.000234
        174.348000        3689.582701        10.887970        13.761387        0.000653        -0.000230
        174.893000        3621.647686        10.876174        13.761938        0.000643        -0.000227
        175.436000        3573.364427        10.868732        13.760078        0.000635        -0.000225
        175.980000        3517.260721        10.876065        13.761501        0.000626        -0.000221
        176.524000        3473.276536        10.890337        13.761334        0.000618        -0.000217
        177.067000        3417.490029        10.860591        13.759671        0.000609        -0.000214
        177.614000        3376.790530        10.868858        13.758753        0.000600        -0.000210
        178.160000        3332.778974        10.870825        13.761724        0.000592        -0.000207
        178.702000        3281.016207        10.872774        13.759763        0.000584        -0.000204
        179.249000        3230.343506        10.860810        13.760235        0.000575        -0.000201
        179.795000        3175.411986        10.861477        13.761613        0.000566        -0.000197
        180.340000        3131.250690        10.850911        13.760629        0.000557        -0.000194
        180.884000        3081.312214        10.854418        13.761768        0.000548        -0.000190
        181.429000        3037.334474        10.865563        13.759902        0.000540        -0.000187
        181.972000        2987.503879        10.869901        13.757572        0.000532        -0.000184
        182.517000        2930.083086        10.856002        13.759478        0.000522        -0.000181
        183.063000        2891.615246        10.854421        13.759849        0.000513        -0.000177
        183.607000        2842.758786        10.849964        13.759069        0.000505        -0.000174
        184.152000        2797.575055        10.859033        13.758795        0.000496        -0.000172
        184.697000        2748.620377        10.848522        13.758319        0.000487        -0.000168
        185.245000        2702.927843        10.848570        13.757365        0.000479        -0.000166
        185.788000        2665.126602        10.836903        13.755794        0.000471        -0.000163
        186.334000        2620.377610        10.846570        13.756754        0.000462        -0.000160
        186.879000        2557.921916        10.846135        13.757142        0.000454        -0.000158
        187.422000        2533.934061        10.833895        13.758327        0.000457        -0.000159
        187.966000        2573.707722        10.843359        13.758985        0.000465        -0.000163
        188.511000        2624.072880        10.828559        13.756432        0.000475        -0.000167
        189.054000        2682.627206        10.845717        13.755858        0.000485        -0.000170
        189.599000        2734.443100        10.849391        13.757853        0.000502        -0.000178
        190.141000        2868.279495        10.856698        13.755666        0.000528        -0.000187
        190.684000        3003.354091        10.847375        13.756462        0.000554        -0.000196
        191.226000        3142.945133        10.851719        13.757022        0.000579        -0.000205
        191.772000        3272.521111        10.867434        13.755934        0.000603        -0.000214
        192.318000        3402.555984        10.858733        13.756268        0.000628        -0.000224
        192.864000        3542.176022        10.868961        13.756508        0.000651        -0.000232
        193.408000        3682.614016        10.873714        13.758522        0.000674        -0.000241
        193.952000        3808.884396        10.872555        13.761673        0.000696        -0.000250
        194.497000        3942.957519        10.880080        13.759927        0.000719        -0.000258
        195.044000        4055.712394        10.907630        13.761580        0.000741        -0.000266
        195.590000        4193.855961        10.890292        13.758390        0.000764        -0.000275
        196.137000        4320.623894        10.897183        13.762444        0.000788        -0.000284
        196.681000        4450.151613        10.910370        13.761037        0.000811        -0.000292
        197.225000        4578.730965        10.907913        13.762627        0.000833        -0.000301
        197.770000        4716.827862        10.902368        13.762668        0.000856        -0.000310
        198.314000        4839.251660        10.929302        13.761871        0.000879        -0.000318
        198.858000        4961.422672        10.924069        13.762098        0.000903        -0.000326
        199.401000        5091.422192        10.921941        13.761425        0.000924        -0.000334
        199.944000        5211.585370        10.929715        13.763818        0.000947        -0.000342
        200.489000        5340.557634        10.934729        13.763568        0.000969        -0.000351
        201.032000        5454.238397        10.941072        13.764604        0.000991        -0.000358
        201.576000        5579.212694        10.954778        13.763645        0.001015        -0.000367
        202.121000        5704.167676        10.952337        13.764292        0.001036        -0.000374
        202.666000        5824.839690        10.954801        13.767350        0.001056        -0.000382
        203.212000        5923.027700        10.962491        13.764737        0.001073        -0.000388
        203.756000        6019.426848        10.955274        13.768279        0.001090        -0.000394
        204.303000        6099.003245        10.967038        13.766264        0.001103        -0.000398
        204.850000        6173.142198        10.976032        13.766081        0.001114        -0.000403
        205.395000        6237.372344        10.985271        13.768986        0.001125        -0.000406
        205.940000        6294.484057        10.975897        13.768369        0.001134        -0.000410
        206.486000        6339.186411        10.986002        13.772023        0.001145        -0.000414
        207.029000        6405.033144        10.988878        13.769774        0.001156        -0.000417
        207.575000        6451.722416        10.998513        13.771750        0.001165        -0.000421
        208.118000        6505.343349        10.988491        13.770792        0.001174        -0.000423
        208.659000        6551.337042        11.007204        13.772759        0.001181        -0.000427
        209.207000        6595.765678        11.019058        13.772907        0.001191        -0.000430
        209.751000        6638.920694        11.018868        13.772736        0.001199        -0.000432
        210.294000        6679.997017        11.013274        13.773466        0.001206        -0.000435
        210.838000        6724.172864        11.010122        13.772882        0.001214        -0.000439
        211.384000        6775.956632        11.025747        13.773870        0.001222        -0.000442
        211.929000        6821.499492        11.024913        13.773796        0.001229        -0.000445
        212.475000        6864.862220        11.030152        13.774672        0.001239        -0.000448
        213.016000        6916.835989        11.028651        13.775985        0.001246        -0.000452
        213.560000        6965.903453        11.040708        13.775276        0.001257        -0.000454
        214.105000        7008.778312        11.052710        13.774780        0.001264        -0.000457
        214.644000        7047.255874        11.075400        13.778984        0.001272        -0.000460
        215.189000        7087.135871        11.051679        13.776670        0.001281        -0.000463
        215.735000        7130.530809        11.053219        13.779469        0.001288        -0.000466
        216.278000        7183.253301        11.072347        13.779646        0.001296        -0.000469
        216.825000        7223.867526        11.083747        13.780656        0.001304        -0.000472
        217.370000        7266.581377        11.067839        13.778959        0.001313        -0.000474
        217.913000        7311.295025        11.072682        13.781063        0.001321        -0.000478
        218.458000        7359.245062        11.097900        13.783393        0.001329        -0.000481
        219.000000        7407.586363        11.078492        13.783152        0.001338        -0.000484
        219.546000        7444.485995        11.097749        13.784033        0.001346        -0.000488
        220.090000        7489.162614        11.124052        13.784552        0.001355        -0.000491
        220.631000        7538.392718        11.106456        13.785473        0.001363        -0.000494
        221.179000        7584.673042        11.115795        13.785447        0.001370        -0.000497
        221.722000        7630.784303        11.117821        13.787869        0.001377        -0.000500
        222.266000        7671.635229        11.120243        13.788737        0.001384        -0.000503
        222.813000        7714.545529        11.129395        13.788599        0.001392        -0.000506
        223.362000        7759.127158        11.132354        13.790007        0.001401        -0.000509
        223.906000        7803.406080        11.126458        13.791431        0.001410        -0.000511
        224.453000        7850.203268        11.141132        13.792850        0.001418        -0.000514
        224.999000        7885.884031        11.148774        13.792913        0.001426        -0.000517
        225.545000        7935.468378        11.146018        13.796210        0.001435        -0.000521
        226.089000        7976.737949        11.151199        13.795090        0.001444        -0.000524
        226.632000        8019.389023        11.154468        13.795073        0.001451        -0.000526
        227.176000        8063.474736        11.170898        13.795114        0.001460        -0.000529
        227.721000        8115.696502        11.185096        13.796824        0.001467        -0.000533
        228.266000        8157.779200        11.178739        13.797015        0.001475        -0.000536
        228.810000        8207.210592        11.168647        13.796422        0.001485        -0.000540
        229.355000        8247.749165        11.182571        13.799207        0.001493        -0.000544
        229.900000        8310.233990        11.183859        13.800235        0.001500        -0.000546
        230.444000        8345.423670        11.188380        13.798486        0.001509        -0.000549
        230.992000        8390.739541        11.194183        13.801440        0.001517        -0.000552
        231.537000        8436.082787        11.185408        13.802741        0.001525        -0.000554
        232.082000        8473.840648        11.202199        13.805486        0.001533        -0.000558
        232.625000        8522.536214        11.203200        13.804170        0.001542        -0.000561
        233.172000        8580.920015        11.218819        13.804765        0.001550        -0.000564
        233.736000        8615.950297        11.210584        13.804543        0.001562        -0.000567
        234.278000        8665.117640        11.219859        13.808816        0.001569        -0.000570
        234.827000        8713.639317        11.226447        13.806053        0.001577        -0.000574
        235.376000        8754.715691        11.232263        13.805715        0.001585        -0.000576
        235.922000        8820.259810        11.237464        13.806908        0.001595        -0.000580
        236.469000        8859.423337        11.227729        13.809914        0.001604        -0.000583
        237.013000        8905.149811        11.244999        13.808963        0.001613        -0.000586
        237.560000        8951.842372        11.238218        13.812722        0.001621        -0.000589
        238.107000        8992.493675        11.238440        13.813515        0.001629        -0.000592
        238.647000        9038.642011        11.252796        13.812104        0.001639        -0.000596
        239.193000        9086.719300        11.257327        13.814386        0.001647        -0.000599
        239.738000        9140.359640        11.255285        13.816896        0.001656        -0.000602
        240.283000        9186.437134        11.276223        13.815206        0.001664        -0.000606
        240.828000        9228.569776        11.264679        13.815843        0.001672        -0.000609
        241.370000        9272.998485        11.270720        13.817799        0.001680        -0.000612
        241.916000        9318.444807        11.276207        13.816298        0.001688        -0.000616
        242.462000        9373.632504        11.284467        13.818831        0.001697        -0.000619
        243.002000        9419.833987        11.292505        13.817928        0.001705        -0.000622
        243.546000        9464.439818        11.292318        13.820427        0.001713        -0.000626
        244.092000        9510.811980        11.284470        13.821251        0.001722        -0.000629
        244.632000        9557.689728        11.310178        13.820566        0.001732        -0.000632
        245.173000        9612.272020        11.316722        13.822900        0.001740        -0.000635
        245.716000        9655.605843        11.311254        13.821675        0.001749        -0.000638
        246.262000        9704.076030        11.333692        13.821353        0.001758        -0.000642
        246.804000        9747.066896        11.317275        13.821663        0.001767        -0.000645
        247.352000        9801.818261        11.323652        13.821472        0.001776        -0.000648
        247.899000        9843.612791        11.322985        13.820509        0.001784        -0.000652
        248.443000        9896.639695        11.332759        13.821592        0.001793        -0.000654
        248.986000        9941.277745        11.343221        13.824146        0.001804        -0.000658
        249.531000        9990.185902        11.350464        13.825485        0.001813        -0.000662
        250.075000        10032.220351        11.345311        13.825343        0.001823        -0.000665
        250.620000        10086.548259        11.358234        13.826186        0.001832        -0.000668
        251.165000        10137.069787        11.361512        13.825382        0.001841        -0.000672
        251.707000        10182.095891        11.372294        13.826611        0.001850        -0.000676
        252.255000        10232.340477        11.373721        13.826423        0.001859        -0.000680
        252.798000        10276.588883        11.378886        13.826514        0.001868        -0.000684
        253.345000        10337.017644        11.371238        13.826610        0.001878        -0.000687
        253.892000        10374.364970        11.387661        13.828127        0.001886        -0.000690
        254.445000        10433.318843        11.377739        13.825930        0.001894        -0.000693
        254.991000        10475.554574        11.394900        13.829900        0.001903        -0.000697
        255.537000        10533.866003        11.406474        13.827964        0.001911        -0.000700
        256.080000        10569.926828        11.396749        13.827602        0.001920        -0.000703
        256.626000        10626.784300        11.415781        13.829555        0.001929        -0.000707
        257.173000        10669.351729        11.412457        13.829935        0.001938        -0.000711
        257.719000        10718.755839        11.420228        13.831555        0.001947        -0.000714
        258.267000        10765.672275        11.416093        13.831126        0.001957        -0.000718
        258.813000        10821.096725        11.428601        13.829604        0.001966        -0.000721
        259.356000        10868.053419        11.422833        13.833846        0.001974        -0.000725
        259.901000        10917.624992        11.439440        13.831168        0.001984        -0.000730
        260.446000        10957.331201        11.438126        13.832369        0.001995        -0.000732
        260.988000        11022.149255        11.444506        13.831595        0.002003        -0.000736
        261.536000        11073.247254        11.431618        13.831985        0.002012        -0.000740
        262.079000        11118.403814        11.448995        13.833146        0.002022        -0.000744
        262.626000        11162.512171        11.455438        13.831736        0.002031        -0.000748
        263.173000        11208.082542        11.469105        13.832129        0.002040        -0.000751
        263.717000        11267.752970        11.458230        13.833035        0.002051        -0.000754
        264.262000        11313.648595        11.474638        13.833133        0.002061        -0.000758
        264.806000        11372.689462        11.475060        13.834164        0.002070        -0.000762
        265.355000        11415.068531        11.482672        13.835505        0.002078        -0.000766
        265.900000        11464.504874        11.487976        13.834635        0.002088        -0.000770
        266.445000        11504.822958        11.475800        13.834086        0.002098        -0.000773
        266.994000        11559.311949        11.491992        13.835380        0.002109        -0.000776
        267.536000        11613.163324        11.499508        13.835806        0.002119        -0.000780
        268.079000        11667.626557        11.503456        13.836386        0.002129        -0.000785
        268.625000        11723.590450        11.503324        13.836955        0.002139        -0.000789
        269.170000        11769.023981        11.506493        13.837119        0.002149        -0.000792
        269.715000        11815.954953        11.513861        13.841094        0.002159        -0.000796
        270.261000        11863.011516        11.521715        13.838873        0.002168        -0.000800
        270.806000        11910.736293        11.516865        13.839241        0.002177        -0.000804
        271.352000        11969.604906        11.546415        13.839821        0.002186        -0.000808
        271.898000        12018.044594        11.543761        13.839645        0.002197        -0.000812
        272.440000        12074.192062        11.528123        13.843439        0.002207        -0.000816
        272.984000        12121.549735        11.546682        13.842460        0.002215        -0.000820
        273.532000        12162.647155        11.543194        13.841167        0.002225        -0.000824
        274.077000        12215.629080        11.537073        13.841501        0.002234        -0.000828
        274.620000        12266.284343        11.548205        13.843270        0.002243        -0.000832
        275.166000        12309.445977        11.557975        13.844059        0.002253        -0.000836
        275.710000        12372.502608        11.545684        13.844684        0.002264        -0.000840
        276.257000        12430.604815        11.574032        13.842219        0.002274        -0.000844
        276.804000        12466.134352        11.574396        13.844053        0.002285        -0.000848
        277.351000        12527.656522        11.579822        13.843706        0.002296        -0.000852
        277.896000        12579.368057        11.574879        13.845876        0.002306        -0.000856
        278.444000        12617.955273        11.599649        13.843537        0.002315        -0.000860
        278.986000        12671.130439        11.587206        13.843812        0.002325        -0.000865
        279.530000        12722.450715        11.591022        13.845780        0.002335        -0.000869
        280.076000        12781.804028        11.602106        13.845817        0.002346        -0.000873
        280.617000        12832.737875        11.616810        13.844834        0.002355        -0.000877
        281.164000        12880.655914        11.604734        13.847060        0.002366        -0.000882
        281.708000        12931.415870        11.611271        13.844389        0.002377        -0.000887
        282.253000        12977.137670        11.615825        13.844908        0.002386        -0.000890
        282.800000        13031.771650        11.622909        13.846094        0.002397        -0.000895
        283.345000        13085.668185        11.628329        13.847641        0.002408        -0.000899
        283.892000        13134.347838        11.638924        13.846303        0.002418        -0.000904
        284.443000        13184.004855        11.630783        13.846434        0.002429        -0.000908
        284.984000        13233.434842        11.637513        13.847615        0.002439        -0.000913
        285.527000        13282.645851        11.651843        13.846931        0.002450        -0.000917
        286.073000        13332.128978        11.655205        13.845348        0.002459        -0.000922
        286.620000        13379.254848        11.637194        13.849516        0.002471        -0.000926
        287.168000        13442.261631        11.654423        13.849360        0.002483        -0.000931
        287.711000        13489.773944        11.653988        13.847205        0.002492        -0.000936
        288.255000        13544.849133        11.669851        13.849411        0.002503        -0.000941
        288.802000        13592.675429        11.672762        13.847003        0.002515        -0.000945
        289.347000        13631.864880        11.681837        13.847430        0.002525        -0.000950
        289.891000        13684.057910        11.680398        13.846027        0.002534        -0.000955
        290.439000        13732.600730        11.686703        13.847131        0.002546        -0.000959
        290.983000        13789.316677        11.711509        13.845355        0.002555        -0.000965
        291.525000        13842.913766        11.700544        13.846418        0.002565        -0.000970
        292.072000        13878.726742        11.698657        13.844686        0.002577        -0.000975
        292.615000        13941.921946        11.708089        13.846551        0.002590        -0.000980
        293.160000        14000.531444        11.715444        13.846150        0.002602        -0.000985
        293.707000        14045.791183        11.712088        13.845404        0.002612        -0.000990
        294.256000        14092.173199        11.716043        13.847033        0.002623        -0.000995
        294.800000        14147.412659        11.723140        13.845259        0.002634        -0.001000
        295.346000        14197.671925        11.736057        13.844294        0.002646        -0.001005
        295.889000        14255.590685        11.735101        13.842860        0.002656        -0.001011
        296.432000        14296.932936        11.742092        13.843155        0.002667        -0.001016
        296.974000        14345.879937        11.742269        13.842717        0.002678        -0.001022
        297.516000        14404.674628        11.750043        13.839816        0.002690        -0.001027
        298.064000        14452.446225        11.760245        13.839369        0.002704        -0.001032
        298.611000        14509.282977        11.764428        13.840045        0.002714        -0.001038
        299.158000        14561.295719        11.764241        13.840757        0.002725        -0.001044
        299.704000        14609.663080        11.757060        13.837776        0.002738        -0.001050
        300.251000        14655.768179        11.771251        13.835943        0.002750        -0.001055
        300.795000        14706.236793        11.777805        13.834478        0.002760        -0.001061
        301.343000        14753.235532        11.786052        13.832700        0.002772        -0.001067
        301.886000        14799.685211        11.792026        13.832735        0.002783        -0.001072
        302.433000        14848.154024        11.782809        13.831720        0.002795        -0.001078
        302.977000        14903.003875        11.792460        13.829606        0.002808        -0.001085
        303.519000        14953.185896        11.803992        13.828461        0.002820        -0.001090
        304.063000        15010.695726        11.812114        13.828406        0.002833        -0.001096
        304.604000        15054.002401        11.793327        13.827481        0.002844        -0.001102
        305.151000        15096.969335        11.812432        13.824442        0.002857        -0.001108
        305.697000        15157.106944        11.820641        13.823098        0.002872        -0.001115
        306.245000        15212.207999        11.824170        13.822650        0.002885        -0.001121
        306.793000        15257.272971        11.823462        13.817300        0.002898        -0.001128
        307.337000        15312.481912        11.826151        13.820758        0.002911        -0.001135
        307.885000        15356.168597        11.830324        13.817533        0.002924        -0.001142
        308.429000        15406.545475        11.834591        13.814803        0.002935        -0.001148
        308.975000        15456.820914        11.842152        13.815116        0.002947        -0.001155
        309.516000        15505.861369        11.843637        13.815110        0.002959        -0.001162
        310.061000        15555.173943        11.845978        13.814674        0.002971        -0.001170
        310.603000        15603.446360        11.865609        13.814352        0.002984        -0.001177
        311.151000        15647.086368        11.864759        13.811005        0.002997        -0.001184
        311.690000        15710.123903        11.865670        13.810530        0.003009        -0.001190
        312.236000        15749.292517        11.868861        13.807425        0.003022        -0.001198
        312.778000        15801.384234        11.878416        13.808634        0.003036        -0.001204
        313.322000        15850.592164        11.875763        13.808844        0.003048        -0.001212
        313.866000        15895.586325        11.889217        13.805572        0.003063        -0.001220
        314.404000        15944.190454        11.892247        13.807048        0.003077        -0.001227
        314.948000        15992.032983        11.892089        13.807048        0.003089        -0.001234
        315.487000        16043.929885        11.901064        13.808444        0.003105        -0.001242
        316.034000        16099.246758        11.894092        13.806945        0.003119        -0.001250
        316.574000        16143.046197        11.917436        13.808156        0.003132        -0.001258
        317.118000        16187.966306        11.921613        13.808842        0.003149        -0.001266
        317.661000        16227.178417        11.912148        13.806503        0.003164        -0.001275
        318.206000        16286.779928        11.929802        13.807892        0.003177        -0.001283
        318.747000        16339.688026        11.927368        13.806321        0.003192        -0.001292
        319.294000        16384.534081        11.926585        13.809726        0.003205        -0.001300
        319.839000        16436.097705        11.937885        13.811352        0.003221        -0.001307
        320.386000        16474.478988        11.940857        13.810552        0.003235        -0.001316
        320.929000        16532.552479        11.938581        13.815317        0.003248        -0.001325
        321.474000        16584.006623        11.961995        13.814128        0.003261        -0.001333
        322.023000        16629.809123        11.949507        13.812807        0.003275        -0.001340
        322.571000        16668.831258        11.946982        13.816664        0.003289        -0.001349
        323.114000        16715.149013        11.962713        13.814386        0.003304        -0.001358
        323.656000        16775.476740        11.971035        13.814263        0.003320        -0.001368
        324.203000        16815.764466        11.969949        13.817850        0.003338        -0.001378
        324.750000        16871.250461        11.969717        13.818484        0.003353        -0.001388
        325.298000        16909.446597        11.983813        13.820667        0.003369        -0.001397
        325.845000        16951.431434        11.983594        13.817617        0.003385        -0.001407
        326.391000        16999.660463        11.970983        13.819054        0.003402        -0.001417
        326.935000        17049.383720        11.991271        13.818523        0.003418        -0.001427
        327.476000        17087.695796        11.990633        13.818931        0.003435        -0.001437
        328.025000        17137.692785        12.001556        13.820975        0.003452        -0.001447
        328.569000        17186.892749        12.006116        13.822589        0.003466        -0.001457
        329.114000        17228.302775        12.019394        13.822587        0.003485        -0.001467
        329.659000        17272.607867        12.010551        13.821944        0.003503        -0.001479
        330.205000        17325.617473        12.019155        13.823778        0.003519        -0.001490
        330.751000        17364.894048        12.021561        13.824263        0.003536        -0.001501
        331.298000        17409.973634        12.015510        13.826071        0.003554        -0.001512
        331.840000        17457.375071        12.028623        13.828296        0.003571        -0.001523
        332.388000        17495.228273        12.039195        13.828037        0.003588        -0.001534
        332.933000        17544.388008        12.040261        13.829477        0.003606        -0.001546
        333.472000        17589.395148        12.054150        13.830498        0.003622        -0.001558
        334.020000        17630.009778        12.048811        13.831074        0.003640        -0.001569
        334.565000        17670.283058        12.070950        13.831107        0.003658        -0.001581
        335.106000        17716.652399        12.062735        13.830624        0.003677        -0.001593
        335.653000        17756.183400        12.061283        13.832494        0.003695        -0.001605
        336.199000        17794.650089        12.078183        13.834891        0.003713        -0.001618
        336.741000        17845.911100        12.066410        13.834466        0.003733        -0.001630
        337.287000        17879.128675        12.074808        13.833682        0.003751        -0.001643
        337.829000        17920.227981        12.090691        13.835089        0.003772        -0.001656
        338.373000        17965.521752        12.091831        13.836900        0.003792        -0.001669
        338.919000        18002.945069        12.094413        13.835764        0.003815        -0.001683
        339.464000        18047.453088        12.095743        13.836145        0.003836        -0.001696
        340.007000        18094.609821        12.095228        13.838582        0.003853        -0.001709
        340.551000        18121.750667        12.108193        13.836596        0.003872        -0.001723
        341.097000        18169.385622        12.112025        13.837256        0.003891        -0.001736
        341.639000        18196.233422        12.121734        13.840367        0.003911        -0.001750
        342.184000        18233.242940        12.116195        13.839762        0.003932        -0.001764
        342.729000        18278.034362        12.117284        13.841382        0.003955        -0.001779
        343.274000        18324.775689        12.145133        13.845019        0.003976        -0.001793
        343.820000        18361.780383        12.136167        13.843128        0.003999        -0.001808
        344.366000        18402.544802        12.134113        13.844560        0.004019        -0.001823
        344.910000        18432.830303        12.142299        13.846959        0.004039        -0.001837
        345.452000        18478.203005        12.145023        13.849044        0.004059        -0.001852
        345.997000        18513.352802        12.145748        13.850382        0.004085        -0.001866
        346.540000        18543.248648        12.152910        13.853679        0.004105        -0.001882
        347.086000        18578.222941        12.176476        13.857246        0.004126        -0.001896
        347.625000        18613.683504        12.172276        13.858607        0.004148        -0.001911
        348.171000        18655.560560        12.171774        13.858455        0.004171        -0.001927
        348.715000        18687.113266        12.173629        13.858394        0.004195        -0.001943
        349.258000        18723.615609        12.178292        13.858926        0.004219        -0.001958
        349.803000        18756.058739        12.195102        13.862317        0.004244        -0.001975
        350.348000        18784.761467        12.182449        13.859839        0.004266        -0.001990
        350.886000        18825.532352        12.186639        13.864353        0.004290        -0.002006
        351.427000        18854.724570        12.198950        13.861361        0.004316        -0.002022
        351.973000        18884.908651        12.207139        13.857621        0.004340        -0.002040
        352.516000        18920.422365        12.219363        13.858457        0.004364        -0.002057
        353.063000        18952.279405        12.212749        13.856934        0.004388        -0.002073
        353.605000        18969.213472        12.211303        13.855146        0.004414        -0.002089
        354.151000        19002.997877        12.216098        13.855388        0.004440        -0.002106
        354.696000        19039.184645        12.231736        13.852534        0.004465        -0.002124
        355.241000        19067.116117        12.232357        13.853687        0.004491        -0.002141
        355.786000        19098.652742        12.234518        13.854401        0.004516        -0.002159
        356.333000        19130.318181        12.232148        13.852569        0.004542        -0.002176
        356.877000        19147.545301        12.245126        13.851749        0.004568        -0.002193
        357.413000        19179.566588        12.253801        13.850972        0.004593        -0.002211
        357.957000        19198.020654        12.255804        13.852313        0.004618        -0.002229
        358.505000        19227.100177        12.257794        13.849875        0.004645        -0.002246
        359.050000        19266.049995        12.269004        13.851282        0.004671        -0.002264
        359.595000        19286.745408        12.271587        13.847346        0.004696        -0.002282
        360.140000        19308.059124        12.259144        13.845006        0.004722        -0.002300
        360.685000        19332.361301        12.273941        13.844959        0.004750        -0.002318
        361.230000        19364.071836        12.278655        13.842675        0.004779        -0.002337
        361.775000        19392.355947        12.279834        13.841722        0.004806        -0.002356
        362.317000        19419.195742        12.297008        13.839767        0.004833        -0.002374
        362.860000        19433.173563        12.272643        13.839154        0.004863        -0.002394
        363.402000        19460.037513        12.298296        13.838032        0.004888        -0.002412
        363.948000        19478.076164        12.296676        13.837097        0.004913        -0.002431
        364.495000        19507.848069        12.308810        13.839151        0.004942        -0.002449
        365.037000        19525.667740        12.306733        13.836335        0.004968        -0.002468
        365.577000        19550.008569        12.314722        13.837708        0.004999        -0.002488
        366.119000        19558.403957        12.329787        13.837628        0.005026        -0.002505
        366.659000        19583.251989        12.340771        13.837959        0.005054        -0.002525
        367.206000        19604.063344        12.335323        13.840928        0.005083        -0.002544
        367.750000        19623.132502        12.335319        13.843100        0.005112        -0.002563
        368.292000        19645.618428        12.330090        13.845207        0.005141        -0.002583
        368.838000        19671.298917        12.349089        13.846716        0.005170        -0.002602
        369.383000        19671.971965        12.354226        13.845860        0.005198        -0.002621
        369.931000        19699.154737        12.364376        13.848104        0.005229        -0.002641
        370.475000        19718.233560        12.359996        13.850974        0.005259        -0.002662
        371.020000        19728.087759        12.359091        13.852521        0.005289        -0.002682
        371.565000        19745.632097        12.363085        13.854120        0.005318        -0.002702
        372.115000        19755.169094        12.362759        13.856992        0.005350        -0.002722
        372.657000        19773.751987        12.385021        13.860920        0.005380        -0.002742
        373.201000        19798.192655        12.376178        13.862419        0.005411        -0.002762
        373.746000        19810.740659        12.384989        13.867030        0.005440        -0.002782
        374.293000        19819.168254        12.391700        13.869217        0.005473        -0.002803
        374.840000        19839.589955        12.398240        13.870284        0.005506        -0.002823
        375.381000        19854.063714        12.401825        13.874710        0.005537        -0.002844
        375.927000        19869.996283        12.391136        13.878059        0.005569        -0.002864
        376.465000        19866.574686        12.402430        13.879342        0.005599        -0.002886
        377.010000        19896.406185        12.419588        13.878003        0.005632        -0.002914
        377.550000        20120.682687        12.428369        13.878117        0.005765        -0.002982
        378.094000        20503.009831        12.442822        13.881715        0.005905        -0.003065
        378.635000        20719.884615        12.486518        13.879438        0.006046        -0.003157
        379.178000        20849.614064        12.493925        13.874854        0.006194        -0.003256
        379.722000        20929.252880        12.521461        13.875946        0.006349        -0.003360
        380.269000        20981.549470        12.543742        13.872488        0.006516        -0.003473
        380.816000        21039.529952        12.565827        13.871150        0.006697        -0.003594
        381.361000        21095.003410        12.589384        13.872734        0.006893        -0.003727
        381.909000        21134.078935        12.607591        13.874219        0.007106        -0.003864
        382.451000        21180.443687        12.635585        13.873061        0.007339        -0.004020
        383.000000        21207.248136        12.641204        13.877269        0.007594        -0.004190
        383.544000        21252.801370        12.681867        13.879484        0.007868        -0.004372
        384.087000        21281.724801        12.687380        13.881599        0.008167        -0.004569
        384.630000        21306.898155        12.725241        13.881149        0.008487        -0.004781
        385.172000        21318.216020        12.734045        13.887303        0.008828        -0.005006
        385.712000        21351.322669        12.773725        13.886943        0.009196        -0.005245
        386.259000        21362.168756        12.793530        13.886390        0.009579        -0.005492
        386.801000        21387.276096        12.812320        13.892224        0.009983        -0.005751
        387.349000        21387.184316        12.824722        13.894159        0.010402        -0.006008
        387.899000        21413.032334        12.861671        13.894786        0.010836        -0.006277
        388.441000        21417.283177        12.872743        13.898203        0.011274        -0.006550
        388.988000        21435.035273        12.898109        13.901191        0.011727        -0.006829
        389.531000        21442.353485        12.925066        13.909863        0.012180        -0.007105
        390.074000        21458.532449        12.945624        13.914960        0.012639        -0.007384
        390.619000        21471.460485        12.975801        13.923146        0.013100        -0.007659
        391.163000        21487.827838        12.993519        13.932270        0.013564        -0.007934
        391.707000        21505.092057        13.017005        13.936621        0.014025        -0.008203
        392.248000        21520.992464        13.039128        13.945314        0.014491        -0.008472
        392.790000        21542.890745        13.064327        13.954589        0.014954        -0.008738
        393.332000        21561.018015        13.087014        13.962870        0.015420        -0.009004
        393.878000        21565.710044        13.110722        13.972148        0.015882        -0.009267
        394.420000        21583.227059        13.126111        13.980552        0.016346        -0.009529
        394.966000        21617.560671        13.154224        13.989855        0.016805        -0.009788
        395.510000        21641.619803        13.176460        13.996825        0.017266        -0.010046
        396.055000        21650.630304        13.196909        14.004213        0.017724        -0.010305
        396.603000        21674.092064        13.221470        14.012404        0.018184        -0.010559
        397.149000        21689.284000        13.245191        14.019987        0.018628        -0.010812
        397.693000        21715.547454        13.276309        14.026463        0.019082        -0.011061
        398.235000        21733.420323        13.284279        14.034245        0.019528        -0.011308
        398.777000        21751.441327        13.315277        14.040397        0.019976        -0.011552
        399.323000        21770.373688        13.331247        14.047529        0.020423        -0.011797
        399.868000        21789.755286        13.357585        14.052804        0.020862        -0.012038
        400.410000        21793.883758        13.392760        14.057990        0.021307        -0.012277
        400.958000        21830.925684        13.403861        14.068494        0.021747        -0.012515
        401.502000        21849.558556        13.422877        14.074982        0.022185        -0.012753
        402.050000        21857.036179        13.456042        14.078540        0.022619        -0.012986
        402.593000        21879.217864        13.476391        14.086574        0.023052        -0.013218
        403.135000        21895.886330        13.482007        14.091784        0.023478        -0.013446
        403.676000        21905.732512        13.514787        14.100679        0.023910        -0.013678
        404.222000        21934.664026        13.550223        14.108773        0.024339        -0.013905
        404.766000        21947.775632        13.564930        14.117081        0.024762        -0.014132
        405.309000        21973.936046        13.577685        14.122331        0.025186        -0.014354
        405.850000        21991.831464        13.598433        14.133024        0.025588        -0.014580
        406.395000        22012.428748        13.632440        14.138252        0.025965        -0.014806
        406.939000        22024.899507        13.654573        14.147763        0.026380        -0.015028
        407.480000        22036.426708        13.677936        14.151287        0.026798        -0.015250
        408.025000        22056.447551        13.693277        14.161139        0.027217        -0.015471
        408.567000        22073.405855        13.721658        14.168112        0.027632        -0.015690
        409.112000        22086.108480        13.736854        14.174015        0.028046        -0.015908
        409.657000        22100.331105        13.769092        14.179956        0.028458        -0.016124
        410.196000        22119.234493        13.788408        14.186228        0.028867        -0.016338
        410.739000        22136.693560        13.808032        14.191653        0.029281        -0.016555
        411.285000        22157.240933        13.833550        14.196457        0.029697        -0.016772
        411.830000        22168.797120        13.853119        14.203891        0.030107        -0.016985
        412.376000        22184.700765        13.883699        14.209364        0.030519        -0.017199
        412.920000        22201.312884        13.905665        14.214546        0.030929        -0.017412
        413.460000        22214.155597        13.922243        14.220866        0.031338        -0.017625
        414.005000        22226.368735        13.945876        14.227632        0.031742        -0.017834
        414.547000        22242.042126        13.963456        14.232080        0.032148        -0.018044
        415.092000        22248.510178        13.983447        14.238345        0.032554        -0.018254
        415.639000        22273.688403        14.015950        14.242831        0.032965        -0.018464
        416.182000        22282.896965        14.037815        14.246979        0.033372        -0.018672
        416.725000        22296.881289        14.066086        14.251473        0.033780        -0.018882
        417.272000        22310.706208        14.087327        14.257283        0.034187        -0.019092
        417.820000        22332.290536        14.119144        14.261444        0.034599        -0.019303
        418.367000        22342.901557        14.127600        14.266165        0.035004        -0.019511
        418.913000        22355.602577        14.152889        14.270541        0.035409        -0.019717
        419.455000        22362.059361        14.173000        14.276964        0.035815        -0.019925
        420.004000        22381.017502        14.192669        14.283918        0.036214        -0.020128
        420.538000        22387.474285        14.223317        14.290536        0.036615        -0.020332
        421.082000        22407.173107        14.236423        14.296168        0.037018        -0.020537
        421.622000        22419.006247        14.247610        14.302672        0.037422        -0.020743
        422.171000        22435.914645        14.287893        14.309210        0.037829        -0.020949
        422.716000        22445.752785        14.305254        14.316058        0.038231        -0.021153
        423.263000        22450.486685        14.327264        14.322468        0.038640        -0.021359
        423.804000        22466.618983        14.358974        14.330718        0.039046        -0.021563
        424.346000        22482.124923        14.372976        14.336001        0.039452        -0.021768
        424.891000        22485.214841        14.408206        14.338849        0.039852        -0.021972
        425.435000        22502.041121        14.423074        14.346310        0.040251        -0.022174
        425.980000        22514.081976        14.451113        14.351778        0.040652        -0.022377
        426.526000        22518.411724        14.468735        14.356682        0.040058        -0.022305
        427.070000        22525.179271        14.480154        14.361953        0.036244        -0.021295
        427.612000        22536.416651        14.524542        14.364613        0.036144        -0.021391
        428.159000        22555.231493        14.542231        14.369874        0.036241        -0.021520
        428.701000        22558.422853        14.563575        14.371904        0.036403        -0.021659
        429.243000        22565.971332        14.574692        14.375755        0.036595        -0.021804
        429.787000        22581.932954        14.607310        14.378184        0.036807        -0.021956
        430.330000        22581.833123        14.623630        14.382111        0.037029        -0.022109
        430.875000        22598.284237        14.656564        14.386094        0.037260        -0.022264
        431.421000        22599.208476        14.674585        14.387656        0.037426        -0.022393
        431.967000        22617.176370        14.692876        14.392654        0.037659        -0.022545
        432.513000        22629.848415        14.716120        14.395378        0.037893        -0.022700
        433.057000        22631.664688        14.746767        14.401406        0.038120        -0.022852
        433.599000        22639.370967        14.763085        14.405621        0.038332        -0.023003
        434.148000        22649.135042        14.787874        14.412781        0.038533        -0.023149
        434.690000        22659.510983        14.815343        14.415433        0.038681        -0.023289
        435.234000        22660.944035        14.837966        14.421019        0.038835        -0.023430
        435.775000        22669.184890        14.855533        14.429136        0.038992        -0.023572
        436.314000        22672.284468        14.886289        14.435710        0.039156        -0.023717
        436.856000        22696.218050        14.914902        14.438717        0.039315        -0.023858
        437.396000        22696.617373        14.928685        14.447642        0.039466        -0.023998
        437.944000        22706.265517        14.946267        14.455110        0.039616        -0.024134
        438.485000        22708.975435        14.981861        14.458599        0.039765        -0.024261
        439.034000        22716.403154        14.998803        14.468342        0.039897        -0.024390
        439.578000        22724.384773        15.013565        14.475401        0.040025        -0.024519
        440.118000        22731.355202        15.043774        14.480611        0.040150        -0.024649
        440.660000        22733.881561        15.071098        14.486328        0.040280        -0.024782
        441.203000        22743.880724        15.084050        14.492331        0.040413        -0.024915
        441.744000        22732.831730        15.103514        14.499209        0.040548        -0.025048
        442.288000        22743.904876        15.125756        14.508268        0.040670        -0.025180
        442.833000        22755.415989        15.138779        14.513909        0.040761        -0.025304
        443.377000        22756.430398        15.171971        14.519451        0.040805        -0.025421
        443.924000        22760.571757        15.190059        14.527704        0.040811        -0.025528
        444.462000        22766.780578        15.228210        14.535335        0.040758        -0.025626
        445.011000        22766.395747        15.229475        14.544422        0.040687        -0.025719
        445.552000        22773.825078        15.259540        14.550262        0.040667        -0.025814
        446.093000        22780.690848        15.300276        14.557301        0.040630        -0.025906
        446.639000        22789.297213        15.313425        14.565360        0.040543        -0.025987
        447.185000        22795.712135        15.324702        14.572748        0.040454        -0.026064
        447.728000        22794.056879        15.354062        14.579273        0.040392        -0.026142
        448.275000        22795.932729        15.374153        14.588003        0.040341        -0.026220
        448.819000        22799.117648        15.393958        14.595180        0.040296        -0.026298
        449.359000        22798.393070        15.427793        14.601869        0.040272        -0.026379
        449.905000        22804.183245        15.457716        14.606348        0.040272        -0.026462
        450.446000        22796.493068        15.462489        14.612545        0.040296        -0.026543
        450.991000        22803.878925        15.485907        14.618445        0.040347        -0.026632
        451.532000        22819.829280        15.516425        14.626320        0.040410        -0.026723
        452.079000        22822.070639        15.530920        14.631549        0.040459        -0.026806
        452.623000        22810.937915        15.556862        14.636067        0.040486        -0.026890
        453.168000        22821.639114        15.575936        14.641922        0.040466        -0.026952
        453.710000        22827.083103        15.610213        14.647849        0.040409        -0.027002
        454.252000        22827.352002        15.622946        14.656327        0.040361        -0.027052
        454.797000        22824.679116        15.648383        14.658656        0.040335        -0.027109
        455.339000        22825.034965        15.673321        14.666706        0.040336        -0.027173
        455.884000        22816.333599        15.701749        14.671219        0.040352        -0.027240
        456.430000        22822.060978        15.726217        14.674188        0.040375        -0.027309
        456.978000        22823.614794        15.735066        14.679710        0.040410        -0.027380
        457.520000        22828.997596        15.770284        14.683272        0.040446        -0.027448
        458.065000        22825.128355        15.786137        14.687498        0.040496        -0.027520
        458.612000        22836.541250        15.803182        14.690554        0.040549        -0.027592
        459.157000        22831.464379        15.829595        14.695027        0.040611        -0.027665
        459.699000        22833.531840        15.847306        14.697996        0.040681        -0.027741
        460.245000        22830.163361        15.877319        14.704404        0.040755        -0.027817
        460.792000        22821.994962        15.908102        14.709008        0.040842        -0.027897
        461.337000        22829.161834        15.920088        14.713670        0.040951        -0.027986
        461.881000        22827.197425        15.955353        14.717638        0.041069        -0.028076
        462.422000        22824.292677        15.959765        14.722923        0.041195        -0.028170
        462.968000        22819.541060        15.994216        14.732646        0.041370        -0.028299
        463.513000        22827.171663        16.017936        14.740051        0.041532        -0.028405
        464.056000        22824.107507        16.039332        14.744964        0.041691        -0.028510
        464.597000        22828.408274        16.064167        14.751290        0.041837        -0.028608
        465.145000        22823.104369        16.077389        14.758425        0.041982        -0.028706
        465.688000        22830.068360        16.100115        14.766802        0.042134        -0.028807
        466.236000        22814.668682        16.124937        14.772868        0.042283        -0.028905
        466.780000        22826.466408        16.144970        14.778467        0.042436        -0.029003
        467.322000        22814.966564        16.174494        14.783611        0.042592        -0.029107
        467.868000        22803.101211        16.193555        14.790824        0.042749        -0.029209
        468.412000        22809.936389        16.214164        14.794429        0.042903        -0.029308
        468.961000        22814.916649        16.244178        14.804106        0.043051        -0.029401
        469.498000        22805.102654        16.268333        14.808214        0.043192        -0.029492
        470.043000        22809.735117        16.282560        14.815763        0.043335        -0.029585
        470.587000        22805.529349        16.319774        14.818565        0.043482        -0.029677
        471.132000        22807.033250        16.336796        14.824020        0.043627        -0.029768
        471.676000        22795.919846        16.371318        14.830015        0.043775        -0.029859
        472.220000        22791.469334        16.373469        14.834839        0.043923        -0.029948
        472.763000        22791.891199        16.400332        14.840786        0.044064        -0.030033
        473.302000        22787.365007        16.403157        14.847677        0.044202        -0.030119
        473.848000        22784.023901        16.450756        14.853092        0.044342        -0.030218
        474.391000        22787.324753        16.470853        14.857847        0.044488        -0.030308
        474.936000        22782.181865        16.478721        14.865690        0.044622        -0.030391
        475.476000        22780.199745        16.512659        14.874863        0.044756        -0.030473
        476.020000        22766.052781        16.539239        14.883010        0.044894        -0.030552
        476.568000        22763.740576        16.566709        14.890258        0.045027        -0.030628
        477.111000        22769.503377        16.576289        14.899229        0.045155        -0.030701
        477.651000        22755.957007        16.593878        14.907550        0.045276        -0.030774
        478.195000        22754.628616        16.634483        14.911732        0.045415        -0.030856
        478.737000        22757.114721        16.643470        14.920659        0.045543        -0.030927
        479.280000        22752.060393        16.680072        14.928502        0.045669        -0.030997
        479.828000        22736.599530        16.688867        14.932357        0.045784        -0.031058
        480.370000        22743.790554        16.725630        14.939665        0.045888        -0.031110
        480.918000        22727.411894        16.730943        14.943590        0.045989        -0.031162
        481.463000        22737.151817        16.770150        14.951768        0.046088        -0.031210
        482.007000        22726.991640        16.786332        14.957295        0.046174        -0.031254
        482.544000        22720.307819        16.802198        14.963873        0.046242        -0.031280
        483.086000        22718.782986        16.844265        14.971625        0.046310        -0.031303
        483.625000        22714.071626        16.854261        14.981705        0.046230        -0.031320
        484.173000        22707.756536        16.874053        14.988442        0.046258        -0.031339
        484.714000        22701.573479        16.895802        14.993321        0.046310        -0.031358
        485.255000        22705.463652        16.912345        15.003316        0.046378        -0.031387
        485.803000        22696.177796        16.936710        15.010575        0.046456        -0.031420
        486.346000        22690.268468        16.971569        15.018371        0.046538        -0.031450
        486.888000        22676.820321        16.980535        15.025733        0.046617        -0.031479
        487.430000        22680.696002        17.005411        15.032916        0.046705        -0.031510
        487.974000        22674.224725        17.031666        15.040026        0.046798        -0.031540
        488.516000        22668.956245        17.049452        15.048752        0.046890        -0.031547
        489.062000        22667.742176        17.091615        15.055214        0.046973        -0.031549
        489.603000        22657.098947        17.101566        15.065432        0.047046        -0.031540
        490.151000        22654.727165        17.120456        15.072116        0.047114        -0.031536
        490.695000        22646.172327        17.148215        15.079519        0.047184        -0.031538
        491.234000        22637.363082        17.172451        15.088089        0.047253        -0.031544
        491.783000        22643.626647        17.185045        15.096068        0.047316        -0.031545
        492.327000        22628.605363        17.214778        15.105828        0.047374        -0.031551
        492.877000        22616.986370        17.229949        15.114095        0.047437        -0.031562
        493.420000        22626.309260        17.269069        15.121898        0.047504        -0.031573
        493.967000        22614.094505        17.281731        15.130966        0.047553        -0.031575
        494.511000        22611.973909        17.299395        15.136826        0.047593        -0.031564
        495.057000        22595.232964        17.327221        15.144250        0.047619        -0.031473
        495.598000        22593.313641        17.352713        15.151006        0.046094        -0.031443
        496.144000        22596.345592        17.392126        15.160376        0.044869        -0.031416
        496.687000        22584.726600        17.404447        15.165340        0.038672        -0.031357
        497.231000        22580.176258        17.423289        15.173508        0.034133        -0.031110
        497.774000        22573.304049        17.436218        15.180515        0.031948        -0.030925
        498.318000        22566.090485        17.462338        15.187968        0.030654        -0.030748
        498.863000        22562.852432        17.488841        15.195796        0.029837        -0.030600
        499.401000        22546.866658        17.509805        15.200802        0.029182        -0.030409
        499.947000        22546.731404        17.534562        15.208551        0.028645        -0.030233
        500.488000        22534.981989        17.549147        15.214466        0.028192        -0.030082
        501.035000        22533.597243        17.581849        15.219751        0.027847        -0.029747
        501.577000        22523.438677        17.607963        15.225899        0.027512        -0.029319
        502.124000        22526.742747        17.621530        15.232796        0.027213        -0.028984
        502.667000        22516.600282        17.655732        15.238576        0.026941        -0.028671
        503.209000        22514.756637        17.664971        15.244517        0.026708        -0.028380
        503.752000        22496.168830        17.695989        15.252581        0.026488        -0.028115
        504.294000        22499.767561        17.714197        15.258218        0.026288        -0.027847
        504.843000        22502.401799        17.727780        15.266686        0.026103        -0.027513
        505.384000        22485.337213        17.755555        15.273739        0.025929        -0.027208
        505.931000        22482.545178        17.781787        15.282952        0.025754        -0.026639
        506.473000        22472.280342        17.813607        15.293874        0.025568        -0.026241
        507.016000        22468.349915        17.830777        15.299985        0.025404        -0.025867
        507.555000        22462.867286        17.838535        15.309046        0.025250        -0.025496
        508.102000        22462.567794        17.879713        15.318489        0.025105        -0.025070
        508.642000        22447.540073        17.904058        15.325941        0.024973        -0.024651
        509.185000        22441.113884        17.922974        15.331329        0.024846        -0.023636
        509.732000        22430.204982        17.947275        15.343002        0.024723        -0.018640
        510.274000        22427.807438        17.966471        15.349111        0.024605        0.029502
        510.819000        22421.427943        17.981236        15.357632        0.024496        0.046163
        511.365000        22409.907175        18.014559        15.365338        0.024388        0.046163
        511.908000        22408.891158        18.025901        15.373566        0.024293        0.046163
        512.452000        22399.961153        18.054053        15.382023        0.024208        0.046163
        512.999000        22399.777594        18.081045        15.386937        0.024070        0.046163
        513.543000        22389.619031        18.093195        15.395616        0.023978        0.046163
        514.086000        22380.811401        18.131971        15.402384        0.023898        0.046163
        514.626000        22378.478265        18.148127        15.408148        0.023826        0.046163
        515.170000        22373.715381        18.172093        15.416109        0.023766        0.046163
        515.713000        22363.390971        18.186468        15.424375        0.023709        0.040836
        516.253000        22357.900291        18.218648        15.432642        0.023661        -0.018246
        516.799000        22349.382492        18.233877        15.442361        0.023620        -0.024331
        517.337000        22344.907828        18.261761        15.451126        0.023589        -0.025070
        517.884000        22339.856725        18.279222        15.457991        0.023565        -0.025439
        518.428000        22340.276980        18.307863        15.465547        0.023534        -0.025462
        518.975000        22325.192907        18.331655        15.473935        0.023492        -0.025421
        519.517000        22325.621212        18.355726        15.482648        0.023447        -0.025284
        520.060000        22314.290446        18.387378        15.488115        0.023432        -0.025068
        520.605000        22301.080613        18.393220        15.496057        0.023392        -0.024981
        521.152000        22303.375104        18.425668        15.503445        0.023348        -0.024917
        521.698000        22291.029932        18.446071        15.510362        0.023308        -0.024859
        522.242000        22279.232218        18.456647        15.519144        0.023270        -0.024804
        522.784000        22280.815014        18.478773        15.525468        0.023233        -0.024752
        523.330000        22278.977809        18.506948        15.534108        0.023199        -0.024709
        523.874000        22256.984501        18.542725        15.541688        0.023163        -0.024669
        524.416000        22254.669078        18.555304        15.549873        0.023128        -0.024634
        524.963000        22250.067212        18.563828        15.559858        0.023094        -0.024603
        525.501000        22246.495856        18.611717        15.567746        0.023061        -0.024571
        526.048000        22232.342464        18.625103        15.575731        0.023027        -0.024540
        526.594000        22237.702718        18.649342        15.584685        0.022993        -0.024510
        527.138000        22232.595261        18.668374        15.595047        0.022959        -0.024486
        527.685000        22228.508650        18.692185        15.603034        0.022926        -0.024462
        528.228000        22208.236613        18.706883        15.613502        0.022894        -0.024435
        528.772000        22211.424750        18.732671        15.622955        0.022861        -0.024410
        529.315000        22198.694748        18.765089        15.631339        0.022830        -0.024386
        529.860000        22199.891104        18.789251        15.641412        0.022797        -0.024364
        530.399000        22187.032291        18.804950        15.649942        0.022770        -0.024340
        530.945000        22181.248562        18.826954        15.658892        0.022742        -0.024315
        531.503000        22180.148815        18.846034        15.668472        0.022717        -0.024289
        532.045000        22164.493136        18.878588        15.679690        0.022692        -0.024264
        532.589000        22159.636865        18.909004        15.689175        0.022664        -0.024242
        533.126000        22157.100848        18.928203        15.697699        0.022638        -0.024221
        533.664000        22144.718646        18.942759        15.709064        0.022610        -0.024199
        534.210000        22145.977798        18.970901        15.717452        0.022583        -0.024177
        534.754000        22129.528307        19.005635        15.726354        0.022555        -0.024158
        535.293000        22132.672968        19.005397        15.735390        0.022527        -0.024138
        535.838000        22130.433222        19.032080        15.746112        0.022501        -0.024120
        536.382000        22117.740257        19.050285        15.752718        0.022474        -0.024102
        536.928000        22124.119747        19.073912        15.758743        0.022448        -0.024083
        537.468000        22108.604155        19.109857        15.768584        0.022421        -0.024065
        538.014000        22108.988986        19.122165        15.775598        0.022392        -0.024047
        538.551000        22096.044834        19.142250        15.783558        0.022365        -0.024029
        539.094000        22098.051106        19.172723        15.793365        0.022340        -0.024012
        539.635000        22082.923565        19.197262        15.801863        0.022315        -0.023992
        540.175000        22080.585599        19.216577        15.807020        0.022290        -0.023976
        540.719000        22073.214244        19.239631        15.818706        0.022264        -0.023964
        541.261000        22063.686873        19.254538        15.827549        0.022237        -0.023950
        541.804000        22071.436617        19.271489        15.836188        0.022214        -0.023934
        542.348000        22051.625095        19.311125        15.845659        0.022190        -0.023918
        542.895000        22053.441366        19.325239        15.854980        0.022166        -0.023900
        543.435000        22042.640352        19.348953        15.862893        0.022142        -0.023883
        543.981000        22036.101455        19.368678        15.870240        0.022120        -0.023868
        544.521000        22040.023826        19.394604        15.880729        0.022100        -0.023852
        545.066000        22029.855608        19.413044        15.888153        0.022077        -0.023836
        545.608000        22018.914509        19.437563        15.893932        0.022054        -0.023818
        546.150000        22030.242048        19.455564        15.904914        0.022033        -0.023798
        546.690000        22014.663663        19.493902        15.908550        0.022012        -0.023779
        547.235000        22009.126291        19.503054        15.913844        0.021987        -0.023765
        547.780000        22006.455020        19.529512        15.920726        0.021961        -0.023751
        548.321000        21999.713243        19.544605        15.926916        0.021936        -0.023735
        548.868000        21991.655956        19.575523        15.933420        0.021912        -0.023715
        549.407000        21990.678583        19.595077        15.941141        0.021888        -0.023697
        549.951000        21984.556721        19.622733        15.947970        0.021864        -0.023682
        550.491000        21976.293334        19.636329        15.954634        0.021837        -0.023664
        551.041000        21974.454521        19.669833        15.961688        0.021811        -0.023644
        551.584000        21963.487661        19.690610        15.973692        0.021786        -0.023624
        552.126000        21959.061306        19.715831        15.984236        0.021758        -0.023607
        552.670000        21964.043167        19.729176        15.994980        0.021728        -0.023586
        553.219000        21958.069442        19.758819        16.004648        0.021694        -0.023561
        553.762000        21954.064951        19.778530        16.013355        0.021665        -0.023536
        554.302000        21944.023938        19.803778        16.023018        0.021640        -0.023510
        554.850000        21932.834874        19.825428        16.034339        0.021610        -0.023486
        555.393000        21941.233515        19.853248        16.044450        0.021581        -0.023463
        555.937000        21925.877334        19.868348        16.055785        0.021551        -0.023437
        556.484000        21927.877164        19.896412        16.065180        0.021523        -0.023414
        557.032000        21922.531404        19.917090        16.074895        0.021493        -0.023388
        557.573000        21920.101659        19.935726        16.085538        0.021465        -0.023362
        558.118000        21914.235814        19.966554        16.096165        0.021460        -0.023200
        558.662000        21907.742004        19.980781        16.103138        0.021444        -0.023133
        559.200000        21895.722093        20.000444        16.112154        0.021427        -0.023081
        559.743000        21894.042687        20.024805        16.121208        0.021412        -0.023035
        560.282000        21894.327687        20.044848        16.128636        0.021395        -0.022998
        560.825000        21885.666590        20.077257        16.135641        0.021377        -0.022966
        561.364000        21881.919726        20.104330        16.146737        0.021362        -0.022932
        561.910000        21876.403288        20.109022        16.154861        0.021348        -0.022900
        562.451000        21870.162274        20.145312        16.162488        0.021337        -0.022869
        562.997000        21862.908464        20.158689        16.171015        0.021323        -0.022843
        563.539000        21868.969139        20.184867        16.180691        0.021306        -0.022816
        564.084000        21855.941265        20.215089        16.188402        0.021288        -0.022791
        564.626000        21854.691775        20.226054        16.198030        0.021272        -0.022770
        565.168000        21847.359066        20.245041        16.208488        0.021260        -0.022743
        565.706000        21850.278302        20.283794        16.215451        0.021244        -0.022717
        566.247000        21843.637965        20.301628        16.224602        0.021229        -0.022694
        566.794000        21839.224494        20.332224        16.231397        0.021215        -0.022672
        567.338000        21829.615008        20.349417        16.240865        0.021204        -0.022643
        567.885000        21828.512041        20.364140        16.249364        0.021190        -0.022616
        568.429000        21819.757556        20.391242        16.258509        0.021179        -0.022587
        568.973000        21825.678145        20.405534        16.267485        0.021168        -0.022556
        569.515000        21813.845017        20.433476        16.272705        0.021159        -0.022529
        570.059000        21812.176883        20.469257        16.281565        0.021147        -0.022500
        570.600000        21807.056546        20.480985        16.288279        0.021132        -0.022473
        571.140000        21803.296802        20.503038        16.294450        0.021118        -0.022448
        571.687000        21797.701467        20.531876        16.301826        0.021105        -0.022426
        572.230000        21788.972743        20.559058        16.307182        0.021092        -0.022396
        572.773000        21791.341300        20.575652        16.317130        0.021080        -0.022367
        573.318000        21792.611723        20.596301        16.321352        0.021069        -0.022341
        573.862000        21777.282920        20.620005        16.326564        0.021058        -0.022314
        574.403000        21776.381226        20.639182        16.335831        0.021045        -0.022285
        574.952000        21767.146910        20.660806        16.343200        0.021036        -0.022254
        575.493000        21766.488351        20.675478        16.351634        0.021030        -0.022224
        576.040000        21751.359209        20.709942        16.358628        0.021016        -0.022192
        576.583000        21754.318699        20.731392        16.370611        0.021004        -0.022159
        577.128000        21755.524714        20.762931        16.378378        0.020992        -0.022125
        577.672000        21745.304976        20.788533        16.387215        0.020984        -0.022090
        578.216000        21747.332178        20.798577        16.395858        0.020978        -0.022056
        578.756000        21737.985150        20.819882        16.408731        0.020967        -0.022025
        579.301000        21733.628034        20.856233        16.419756        0.020956        -0.021995
        579.843000        21731.666849        20.867085        16.430234        0.020946        -0.021967
        580.386000        21727.578632        20.896644        16.442485        0.020937        -0.021937
        580.934000        21719.527791        20.907600        16.453226        0.020927        -0.021907
        581.477000        21718.701774        20.936972        16.462238        0.020918        -0.021876
        582.023000        21701.423059        20.962135        16.473711        0.020905        -0.021846
        582.568000        21712.758643        20.984932        16.486755        0.020896        -0.021810
        583.112000        21698.526366        21.008720        16.496131        0.020886        -0.021772
        583.655000        21693.188659        21.024957        16.504728        0.020877        -0.021736
        584.200000        21692.979336        21.036737        16.511848        0.020865        -0.021705
        584.740000        21692.937472        21.068421        16.520656        0.020855        -0.021674
        585.281000        21675.409182        21.088445        16.527478        0.020843        -0.021641
        585.831000        21682.749938        21.110021        16.535683        0.020833        -0.021612
        586.369000        21669.704356        21.140269        16.543873        0.020826        -0.021581
        586.915000        21674.051809        21.164956        16.551309        0.020813        -0.021552
        587.456000        21670.680117        21.181154        16.560528        0.020803        -0.021521
        588.001000        21659.985381        21.203950        16.566594        0.020793        -0.021489
        588.542000        21652.700980        21.228618        16.573991        0.020782        -0.021460
        589.086000        21648.939627        21.249833        16.582668        0.020769        -0.021435
        589.631000        21645.437511        21.268559        16.589377        0.020759        -0.021408
        590.178000        21652.483607        21.296057        16.596885        0.020750        -0.021386
        590.723000        21635.607435        21.326495        16.604354        0.020743        -0.021359
        591.264000        21633.491674        21.337670        16.613334        0.020735        -0.021331
        591.813000        21632.915234        21.359407        16.620913        0.020725        -0.021305
        592.355000        21623.296090        21.397474        16.630685        0.020717        -0.021280
        592.900000        21622.053040        21.412023        16.639028        0.020704        -0.021257
        593.442000        21613.143980        21.427638        16.649494        0.020690        -0.021232
        593.987000        21617.067960        21.465818        16.655004        0.020679        -0.021205
        594.528000        21607.722546        21.476410        16.663584        0.020670        -0.021178
        595.076000        21598.874672        21.502890        16.672235        0.020658        -0.021156
        595.620000        21601.553991        21.529654        16.681104        0.020645        -0.021134
        596.161000        21593.887982        21.532890        16.689632        0.020634        -0.021113
        596.703000        21595.061794        21.578544        16.698002        0.020620        -0.021094
        597.247000        21589.033326        21.600533        16.704790        0.020612        -0.021072
        597.790000        21583.056382        21.605025        16.715548        0.020601        -0.021048
        598.332000        21589.440698        21.638033        16.723603        0.020590        -0.021028
        598.879000        21576.483676        21.659374        16.733835        0.020578        -0.021011
        599.419000        21560.005220        21.683758        16.744687        0.020569        -0.020989
        599.963000        21565.450806        21.690958        16.756468        0.020560        -0.020970
        600.505000        21557.304967        21.726526        16.765939        0.020552        -0.020949
        601.050000        21554.793105        21.755490        16.775868        0.020541        -0.020929
        601.594000        21549.279891        21.790240        16.786610        0.020535        -0.020907
        602.138000        21546.114301        21.790488        16.795187        0.020525        -0.020889
        602.677000        21545.024217        21.818376        16.805015        0.020517        -0.020865
        603.220000        21536.633632        21.837797        16.811286        0.020510        -0.020848
        603.763000        21535.368040        21.869298        16.820195        0.020500        -0.020827
        604.304000        21531.136519        21.880952        16.827563        0.020491        -0.020805
        604.851000        21520.026363        21.916021        16.836594        0.020483        -0.020782
        605.394000        21517.416281        21.938663        16.845258        0.020473        -0.020763
        605.939000        21516.583823        21.950024        16.853080        0.020463        -0.020743
        606.483000        21500.554604        21.979442        16.863209        0.020449        -0.020723
        607.027000        21502.348331        22.008592        16.871242        0.020439        -0.020705
        607.571000        21504.768412        22.022549        16.880966        0.020427        -0.020687
        608.117000        21493.426391        22.047702        16.892511        0.020416        -0.020668
        608.664000        21487.908347        22.070206        16.900150        0.020408        -0.020646
        609.206000        21470.075740        22.085492        16.909968        0.020398        -0.020629
        609.752000        21473.028788        22.113870        16.920887        0.020386        -0.020612
        610.292000        21464.090747        22.134637        16.930901        0.020373        -0.020594
        610.836000        21462.928206        22.175477        16.940143        0.020364        -0.020575
        611.383000        21467.341675        22.182662        16.949503        0.020352        -0.020557
        611.932000        21453.671352        22.201581        16.957966        0.020342        -0.020540
        612.474000        21443.036196        22.230834        16.967059        0.020332        -0.020522
        613.020000        21442.588569        22.240885        16.974419        0.020321        -0.020504
        613.565000        21432.637734        22.274804        16.981635        0.020310        -0.020484
        614.105000        21429.662144        22.293391        16.987696        0.020298        -0.020464
        614.651000        21427.016639        22.316558        16.997600        0.020285        -0.020449
        615.196000        21412.108099        22.342343        17.003508        0.020273        -0.020429
        615.739000        21418.667921        22.358815        17.010308        0.020259        -0.020410
        616.281000        21408.295222        22.393626        17.017747        0.020246        -0.020390
        616.829000        21395.462187        22.417914        17.021684        0.020235        -0.020370
        617.373000        21396.444388        22.425826        17.028681        0.020212        -0.020355
        617.919000        21385.372878        22.456364        17.036830        0.020194        -0.020329
        618.460000        21382.722543        22.481550        17.045932        0.020181        -0.020305
        619.007000        21374.067893        22.499973        17.054260        0.020167        -0.020285
        619.545000        21363.297484        22.529307        17.061524        0.020156        -0.020265
        620.089000        21359.859777        22.545373        17.072083        0.020146        -0.020245
        620.636000        21355.415713        22.561639        17.079540        0.020132        -0.020229
        621.175000        21347.976742        22.588696        17.091033        0.020120        -0.020212
        621.716000        21346.711151        22.603071        17.101499        0.020107        -0.020196
        622.259000        21346.430980        22.641199        17.111972        0.020096        -0.020178
        622.799000        21332.189051        22.666739        17.121242        0.020085        -0.020163
        623.340000        21328.141091        22.682516        17.133127        0.020073        -0.020150
        623.884000        21315.245262        22.690689        17.140477        0.020059        -0.020136
        624.425000        21305.790360        22.730044        17.150526        0.020050        -0.020122
        624.973000        21304.545700        22.746451        17.161986        0.020038        -0.020112
        625.516000        21296.295204        22.768939        17.170177        0.020027        -0.020100
        626.058000        21290.020382        22.798131        17.178532        0.020014        -0.020087
        626.603000        21288.919030        22.806027        17.187742        0.020003        -0.020073
        627.150000        21269.152617        22.842741        17.199520        0.019994        -0.020057
        627.693000        21276.369386        22.861306        17.207811        0.019984        -0.020044
        628.237000        21260.702460        22.886888        17.217596        0.019971        -0.020034
        628.784000        21254.380944        22.907292        17.226970        0.019960        -0.020024
        629.328000        21238.701138        22.938896        17.237188        0.019950        -0.020014
        629.872000        21242.951978        22.956463        17.244330        0.019943        -0.020004
        630.417000        21231.192929        22.978998        17.254928        0.019936        -0.019993
        630.962000        21219.580404        23.009424        17.261771        0.019924        -0.019985
        631.506000        21213.086602        23.032069        17.268836        0.019912        -0.019976
        632.050000        21207.769830        23.049433        17.276310        0.019907        -0.019966
        632.593000        21191.117484        23.062449        17.283561        0.019892        -0.019959
        633.136000        21198.008998        23.097766        17.289537        0.019878        -0.019952
        633.675000        21177.503523        23.118295        17.297911        0.019865        -0.019942
        634.225000        21179.659537        23.135798        17.302399        0.019852        -0.019931
        634.771000        21170.655484        23.155889        17.309803        0.019841        -0.019922
        635.308000        21167.018116        23.178286        17.316745        0.019833        -0.019909
        635.851000        21146.333914        23.203759        17.324517        0.019822        -0.019894
        636.394000        21139.587315        23.230854        17.331169        0.019816        -0.019880
        636.937000        21126.090898        23.246280        17.337132        0.019806        -0.019871
        637.476000        21136.012745        23.274489        17.344147        0.019796        -0.019862
        638.023000        21110.058468        23.294732        17.350058        0.019789        -0.019855
        638.564000        21098.858149        23.326974        17.359659        0.019783        -0.019847
        639.106000        21094.238581        23.350785        17.364576        0.019778        -0.019839
        639.651000        21090.346808        23.361302        17.368696        0.019764        -0.019831
        640.196000        21077.917932        23.387863        17.377764        0.019750        -0.019825
        640.739000        21075.988952        23.406702        17.384541        0.019737        -0.019821
        641.275000        21061.041776        23.424977        17.392896        0.019723        -0.019816
        641.818000        21039.782748        23.452192        17.399339        0.019713        -0.019807
        642.359000        21037.105041        23.476965        17.410228        0.019705        -0.019797
        642.907000        21035.591484        23.499739        17.419115        0.019696        -0.019790
        643.446000        21020.691005        23.500235        17.428682        0.019687        -0.019786
        643.990000        21007.833826        23.552353        17.437749        0.019678        -0.019780
        644.532000        20998.506131        23.570566        17.448879        0.019667        -0.019772
        645.075000        20999.364350        23.591882        17.455884        0.019658        -0.019765
        645.619000        20981.153369        23.612627        17.466627        0.019648        -0.019756
        646.165000        20970.938474        23.634286        17.475019        0.019639        -0.019748
        646.710000        20964.267555        23.655286        17.486546        0.019630        -0.019745
        647.255000        20956.178080        23.672872        17.496662        0.019622        -0.019738
        647.803000        20942.969885        23.697333        17.503486        0.019614        -0.019731
        648.345000        20927.306189        23.719141        17.513324        0.019606        -0.019725
        648.891000        20925.638056        23.754362        17.519651        0.019601        -0.019714
        649.431000        20906.427164        23.766908        17.530160        0.019595        -0.019702
        649.973000        20902.783359        23.792310        17.538257        0.019590        -0.019692
        650.512000        20891.858382        23.815992        17.547156        0.019583        -0.019681
        651.055000        20870.858595        23.840240        17.557491        0.019576        -0.019669
        651.597000        20859.300824        23.865861        17.566509        0.019568        -0.019661
        652.143000        20844.182975        23.886777        17.572865        0.019561        -0.019652
        652.686000        20841.065694        23.903690        17.583739        0.019548        -0.019645
        653.229000        20822.209041        23.924834        17.590661        0.019536        -0.019635
        653.771000        20800.797055        23.960090        17.598768        0.019528        -0.019626
        654.313000        20803.350777        23.972617        17.607725        0.019519        -0.019617
        654.860000        20778.468885        24.002656        17.615145        0.019511        -0.019610
        655.400000        20776.167958        24.008211        17.622745        0.019503        -0.019603
        655.947000        20756.127835        24.051440        17.630635        0.019488        -0.019606
        656.492000        20743.748881        24.064788        17.636515        0.019475        -0.019609
        657.034000        20728.945017        24.085195        17.644908        0.019468        -0.019605
        657.573000        20714.759457        24.104817        17.652021        0.019460        -0.019601
        658.119000        20707.169137        24.138659        17.659164        0.019453        -0.019598
        658.662000        20690.497482        24.157072        17.665576        0.019445        -0.019597
        659.207000        20663.135939        24.182378        17.675916        0.019435        -0.019597
        659.751000        20653.111049        24.204491        17.680769        0.019427        -0.019597
        660.292000        20641.480824        24.224483        17.690450        0.019419        -0.019596
        660.836000        20626.382303        24.239026        17.699066        0.019409        -0.019596
        661.375000        20609.380566        24.267580        17.707446        0.019401        -0.019594
        661.920000        20595.874500        24.289900        17.716654        0.019395        -0.019590
        662.463000        20579.557084        24.319768        17.723974        0.019386        -0.019587
        663.008000        20568.050843        24.341795        17.733194        0.019381        -0.019580
        663.553000        20541.404219        24.365390        17.742403        0.019375        -0.019576
        664.098000        20537.749143        24.383804        17.753046        0.019369        -0.019572
        664.642000        20516.082763        24.411820        17.760417        0.019362        -0.019570
        665.187000        20500.855430        24.433651        17.770483        0.019356        -0.019567
        665.725000        20484.489712        24.445579        17.781108        0.019351        -0.019561
        666.266000        20467.674760        24.474665        17.790341        0.019341        -0.019559
        666.810000        20440.822038        24.496894        17.799983        0.019330        -0.019558
        667.348000        20433.814600        24.529271        17.808466        0.019324        -0.019592
        667.893000        20416.658293        24.527146        17.814946        0.019421        -0.019550
        668.432000        20395.785727        24.563857        17.822264        0.019441        -0.019505
        668.978000        20377.381543        24.591024        17.829862        0.019452        -0.019465
        669.524000        20359.301003        24.603647        17.837687        0.019451        -0.019436
        670.068000        20334.915058        24.630227        17.843636        0.019449        -0.019410
        670.611000        20327.231353        24.659171        17.851241        0.019445        -0.019387
        671.156000        20312.678686        24.669270        17.858973        0.019453        -0.019366
        671.696000        20289.041469        24.690962        17.864270        0.019451        -0.019340
        672.234000        20275.430748        24.721169        17.870269        0.019444        -0.019310
        672.777000        20256.158690        24.743791        17.877569        0.019438        -0.019289
        673.317000        20236.918834        24.762247        17.883925        0.019421        -0.019267
        673.861000        20221.271257        24.806204        17.890191        0.019395        -0.019247
        674.400000        20190.311017        24.820505        17.896708        0.019372        -0.019228
        674.945000        20185.437050        24.836848        17.905649        0.019348        -0.019212
        675.486000        20167.866937        24.847269        17.910238        0.019336        -0.019184
        676.031000        20137.315682        24.882187        17.917808        0.019422        -0.019155
        676.579000        20117.745747        24.911672        17.922414        0.019417        -0.019130
        677.125000        20108.759420        24.923545        17.928687        0.019411        -0.019102
        677.670000        20077.670374        24.956662        17.935894        0.019406        -0.019071
        678.215000        20059.438486        24.973028        17.942519        0.019400        -0.019041
        678.758000        20036.578989        24.997541        17.947468        0.019391        -0.019023
        679.301000        20026.166059        25.017932        17.954987        0.019404        -0.019016
        679.848000        19994.040070        25.042883        17.962022        0.019394        -0.018994
        680.392000        19977.874025        25.064774        17.970406        0.019381        -0.018983
        680.940000        19945.913886        25.084772        17.976792        0.019359        -0.018985
        681.484000        19923.568034        25.105447        17.982913        0.019331        -0.018997
        682.026000        19903.687345        25.135254        17.992205        0.019304        -0.019010
        682.565000        19890.472732        25.152518        17.999426        0.019277        -0.019018
        683.109000        19865.442740        25.172764        18.004812        0.019258        -0.019020
        683.650000        19834.337603        25.208094        18.013944        0.019253        -0.019013
        684.195000        19819.446812        25.229592        18.018675        0.019246        -0.019007
        684.739000        19801.433914        25.243114        18.027407        0.019241        -0.019003
        685.278000        19774.294611        25.264787        18.037406        0.019230        -0.019006
        685.824000        19740.445760        25.287641        18.040282        0.019222        -0.019005
        686.367000        19727.390558        25.317429        18.048480        0.019219        -0.018996
        686.914000        19709.815628        25.342296        18.056415        0.019212        -0.018994
        687.458000        19676.446608        25.351017        18.063696        0.019204        -0.018993
        688.003000        19660.887603        25.370538        18.068632        0.019197        -0.018993
        688.549000        19641.391750        25.414705        18.074242        0.019198        -0.018987
        689.094000        19613.205848        25.408071        18.082083        0.019191        -0.018980
        689.637000        19588.826372        25.457538        18.088088        0.019191        -0.018966
        690.178000        19559.806409        25.466651        18.097062        0.019186        -0.018971
        690.721000        19530.102128        25.497550        18.103889        0.019179        -0.018975
        691.261000        19518.612007        25.512280        18.109842        0.019170        -0.018977
        691.801000        19483.991901        25.534107        18.116564        0.019163        -0.018977
        692.342000        19462.127504        25.574554        18.122814        0.019154        -0.018982
        692.889000        19441.928016        25.582408        18.131230        0.019144        -0.018983
        693.430000        19406.660629        25.608567        18.139104        0.019143        -0.018977
        693.973000        19379.817613        25.627486        18.143481        0.019142        -0.018969
        694.517000        19357.268900        25.653731        18.154298        0.019142        -0.018958
        695.058000        19331.942658        25.670068        18.159583        0.019151        -0.018941
        695.600000        19309.632251        25.692404        18.165483        0.019154        -0.018930
        696.145000        19281.164586        25.711375        18.170553        0.019153        -0.018928
        696.691000        19242.828238        25.753879        18.180021        0.019146        -0.018922
        697.233000        19221.698083        25.763972        18.184713        0.019150        -0.018912
        697.773000        19193.338302        25.791216        18.191637        0.019150        -0.018905
        698.314000        19159.758378        25.815297        18.198704        0.019148        -0.018904
        698.858000        19140.985501        25.838525        18.210740        0.019138        -0.018906
        699.400000        19110.709632        25.852240        18.214352        0.019133        -0.018901
        699.946000        19084.277219        25.886256        18.221669        0.019126        -0.018899
        700.492000        19054.878888        25.911906        18.228666        0.019125        -0.018891
        701.037000        19029.916555        25.923460        18.237207        0.019123        -0.018882
        701.580000        18992.132508        25.949071        18.241652        0.019122        -0.018872
        702.123000        18969.166776        25.967314        18.251715        0.019118        -0.018863
        702.665000        18925.318865        25.994455        18.258743        0.019124        -0.018852
        703.212000        18903.972958        26.026970        18.264194        0.019129        -0.018837
        703.753000        18867.290268        26.033321        18.269332        0.019132        -0.018827
        704.300000        18839.310498        26.069733        18.276739        0.019132        -0.018818
        704.850000        18813.580126        26.087840        18.282185        0.019121        -0.018825
        705.389000        18781.768177        26.105475        18.291304        0.019107        -0.018831
        705.935000        18750.043178        26.133627        18.295764        0.019096        -0.018836
        706.477000        18718.569366        26.151364        18.302345        0.019094        -0.018830
        707.018000        18685.979713        26.164947        18.307456        0.019091        -0.018825
        707.563000        18657.128855        26.196580        18.313363        0.019084        -0.018826
        708.109000        18621.882441        26.219734        18.317915        0.019075        -0.018834
        708.649000        18588.634238        26.240283        18.325726        0.019070        -0.018837
        709.193000        18552.864525        26.255476        18.329509        0.019062        -0.018841
        709.738000        18529.055084        26.283061        18.339343        0.019051        -0.018848
        710.280000        18482.490861        26.304670        18.343596        0.019042        -0.018851
        710.828000        18461.906573        26.333633        18.348633        0.019039        -0.018846
        711.370000        18421.472233        26.352749        18.351597        0.019042        -0.018836
        711.918000        18388.707087        26.384160        18.357514        0.019039        -0.018836
        712.458000        18351.390021        26.398638        18.362649        0.019029        -0.018844
        713.002000        18318.632929        26.415258        18.367964        0.019023        -0.018847
        713.549000        18278.504528        26.439291        18.369646        0.019012        -0.018851
        714.093000        18242.232461        26.462081        18.374527        0.019003        -0.018856
        714.635000        18209.335290        26.487982        18.379445        0.018997        -0.018855
        715.177000        18173.122802        26.520723        18.383020        0.019000        -0.018846
        715.719000        18145.151113        26.532725        18.382888        0.019005        -0.018845
        716.254000        18100.870121        26.562232        18.390113        0.019004        -0.018841
        716.793000        18055.880660        26.577906        18.392232        0.019001        -0.018848
        717.337000        18023.567986        26.610543        18.394694        0.018996        -0.018846
        717.882000        17992.060393        26.633362        18.400284        0.019000        -0.018837
        718.423000        17948.653727        26.651805        18.405438        0.019003        -0.018832
        718.968000        17907.349930        26.677258        18.407580        0.019005        -0.018826
        719.512000        17873.739475        26.696400        18.411746        0.019003        -0.018824
        720.056000        17835.815405        26.717853        18.416124        0.019010        -0.018815
        720.599000        17786.823107        26.747834        18.419862        0.019004        -0.018816
        721.144000        17749.219464        26.770357        18.422861        0.018990        -0.018824
        721.686000        17713.433692        26.783728        18.428357        0.018977        -0.018834
        722.230000        17672.067113        26.809184        18.431490        0.018968        -0.018845
        722.769000        17627.666998        26.830219        18.436043        0.018971        -0.018839
        723.314000        17586.863979        26.852536        18.437832        0.018969        -0.018841
        723.860000        17538.861945        26.881358        18.442782        0.018956        -0.018844
        724.406000        17499.469429        26.899482        18.445050        0.018953        -0.018844
        724.953000        17446.498453        26.931472        18.448263        0.018952        -0.018845
        725.500000        17406.434507        26.952955        18.451892        0.018943        -0.018851
        726.040000        17355.062425        26.965211        18.456165        0.018944        -0.018845
        726.585000        17322.767494        26.999672        18.458905        0.018938        -0.018848
        727.127000        17277.452830        27.013651        18.462890        0.018931        -0.018853
        727.668000        17227.943710        27.020085        18.465266        0.018926        -0.018854
        728.207000        17174.889025        27.057701        18.469341        0.018924        -0.018856
        728.751000        17136.253303        27.077918        18.467620        0.018922        -0.018854
        729.292000        17075.605124        27.098074        18.472376        0.018922        -0.018856
        729.839000        17033.251554        27.122133        18.474863        0.018918        -0.018854
        730.382000        16968.523247        27.150678        18.477344        0.018920        -0.018848
        730.925000        16930.971171        27.173581        18.480625        0.018918        -0.018847
        731.467000        16878.365741        27.192812        18.481416        0.018917        -0.018844
        732.009000        16824.855407        27.217741        18.485153        0.018917        -0.018839
        732.550000        16755.373935        27.241986        18.486033        0.018921        -0.018833
        733.093000        16707.882375        27.260757        18.487588        0.018922        -0.018830
        733.639000        16640.927249        27.285686        18.488700        0.018932        -0.018817
        734.177000        16579.981231        27.304760        18.488416        0.018936        -0.018813
        734.720000        16517.048285        27.340035        18.489041        0.018936        -0.018808
        735.262000        16456.772102        27.356220        18.489055        0.018932        -0.018808
        735.810000        16379.830813        27.368683        18.488583        0.018931        -0.018806
        736.356000        16309.322102        27.398535        18.490051        0.018930        -0.018804
        736.900000        16238.840770        27.419183        18.488427        0.018924        -0.018806
        737.444000        16161.915603        27.451425        18.490001        0.018920        -0.018812
        737.991000        16058.105686        27.470038        18.489321        0.018912        -0.018820
        738.531000        15957.303552        27.495343        18.489930        0.018907        -0.018823
        739.076000        93.319140        27.515934        18.493815        0.018907        -0.018829
        739.650000        98.410399        27.534708        18.495334        0.018903        -0.018826
        740.195000        93.335241        27.557595        18.493406        0.018913        -0.018813
        740.738000        95.299611        27.583280        18.493958        0.018921        -0.018808
        741.280000        87.260187        27.602058        18.491969        0.018931        -0.018795
        741.825000        86.931719        27.630722        18.487962        0.018935        -0.018789
        742.372000        82.349264        27.645525        18.480741        0.018939        -0.018782
        742.913000        88.488723        27.680707        18.475433        0.018942        -0.018777
        743.457000        92.588137        27.695746        18.467299        0.018948        -0.018767
        744.002000        85.753097        27.713751        18.457173        0.018952        -0.018758
        744.545000        81.637582        27.745941        18.443920        0.018952        -0.018757
        745.092000        83.394244        27.756648        18.433907        0.018949        -0.018754
        745.634000        83.128571        27.751345        18.421815        0.018943        -0.018757
        746.180000        85.453611        27.746034        18.413998        0.018936        -0.018762
        746.722000        85.803012        27.754533        18.406259        0.018932        -0.018760
        747.264000        89.290572        27.747235        18.397587        0.018931        -0.018759
        747.808000        80.421927        27.749628        18.391464        0.018931        -0.018757
        748.353000        83.563308        27.752671        18.384209        0.018930        -0.018754
        748.899000        77.361053        27.745471        18.378172        0.018928        -0.018750
        749.445000        84.078553        27.741909        18.368782        0.018926        -0.018745